
#1
liczenie
obiektów (w)	udział punktów	pole obrazu(mm²)
	9	100.00	12288.0000
nr.	x(pix.):	y(pix.):	x(mm):	y(mm):	powierzchnia:(mm²)	długość:(mm)	szerokość:(mm)	kąt:(°)	obwód:(mm)	obwód C.:(mm)	średnica Fereta H(mm)	średnica Fereta V(mm)	średn. Martina:(mm)	średn. sitowa:(mm)	średnia jaskrawość	R	G	B	Y
1	400.00000000	687.00000000	40.00000000	68.70000000	0.73000000	1.23547869	0.86482706	153.97000000	3.40416299	6.64977940	1.00000000	0.90000000	1.20000000	0.96078024	126.30000000	97.20000000	135.50000000	155.40000000	126.30000000
2	192.50000000	751.00000000	19.20000000	75.10000000	0.64000000	0.98569450	0.94162722	2.66000000	2.95563488	6.05565113	0.90000000	0.80000000	1.00000000	0.89917023	118.00000000	88.60000000	126.70000000	150.30000000	118.00000000
3	774.00000000	426.50000000	77.40000000	42.70000000	0.90000000	1.40759554	0.93717251	149.65000000	3.77989894	7.44061987	1.30000000	1.00000000	1.40000000	1.07047447	140.90000000	108.10000000	151.40000000	173.40000000	141.00000000
4	1240.50000000	226.50000000	124.10000000	22.70000000	1.12000000	1.70652447	0.92765656	156.12000000	4.60416301	8.45740665	1.60000000	0.90000000	1.70000000	1.19149574	106.70000000	76.50000000	115.30000000	141.80000000	106.70000000
5	231.50000000	810.00000000	23.20000000	81.00000000	0.65000000	1.13872547	0.77512097	91.06000000	3.13137083	6.06690464	1.10000000	0.70000000	1.10000000	0.90972837	116.10000000	90.00000000	123.90000000	144.80000000	116.20000000
6	695.00000000	752.50000000	69.50000000	75.20000000	0.47000000	0.96409779	0.71692405	16.74000000	2.75563488	5.30966904	0.80000000	0.80000000	1.00000000	0.76945201	101.50000000	80.80000000	107.70000000	123.60000000	101.50000000
7	900.00000000	88.00000000	90.00000000	8.80000000	1.82000000	2.16960011	1.39697866	165.88000000	6.47695516	11.33658114	2.20000000	1.30000000	2.20000000	1.52226672	126.10000000	93.10000000	135.90000000	162.20000000	126.10000000
8	1270.50000000	109.00000000	127.10000000	10.90000000	1.02000000	1.61965408	0.92292452	172.96000000	4.09705623	8.13841273	1.50000000	0.90000000	1.60000000	1.13960710	84.20000000	62.60000000	89.60000000	113.20000000	84.20000000
9	388.50000000	45.50000000	38.90000000	4.50000000	0.60000000	1.01557684	0.83449974	34.28000000	2.95563488	5.82611496	0.90000000	0.80000000	1.00000000	0.87038930	96.30000000	76.60000000	101.60000000	120.90000000	96.30000000

#2
liczenie
obiektów (w)	udział punktów	pole obrazu(mm²)
	19	100.00	12288.0000
nr.	x(pix.):	y(pix.):	x(mm):	y(mm):	powierzchnia:(mm²)	długość:(mm)	szerokość:(mm)	kąt:(°)	obwód:(mm)	obwód C.:(mm)	średnica Fereta H(mm)	średnica Fereta V(mm)	średn. Martina:(mm)	średn. sitowa:(mm)	średnia jaskrawość	R	G	B	Y
1	98.50000000	234.50000000	9.90000000	23.50000000	0.43000000	0.82008867	0.77661395	31.30000000	2.44852812	5.01711897	0.70000000	0.70000000	0.80000000	0.73992770	124.40000000	94.30000000	134.40000000	151.90000000	124.40000000
2	57.00000000	324.00000000	5.70000000	32.40000000	0.83000000	1.48818254	0.80789690	73.40000000	3.83847759	7.37253627	1.50000000	0.80000000	1.50000000	1.02490128	143.80000000	112.50000000	154.30000000	171.50000000	143.80000000
3	847.50000000	610.50000000	84.80000000	61.10000000	1.42000000	2.02550240	0.92739601	144.55000000	5.16984843	9.60040046	1.90000000	1.00000000	2.00000000	1.34224959	169.10000000	136.50000000	180.80000000	194.60000000	169.10000000
4	268.50000000	58.00000000	26.90000000	5.80000000	0.41000000	0.78764277	0.75462275	45.73000000	2.41421353	4.84572526	0.70000000	0.70000000	0.80000000	0.72251520	151.60000000	123.00000000	162.80000000	169.80000000	151.70000000
5	403.50000000	691.50000000	40.40000000	69.20000000	0.76000000	1.05288343	1.00033236	65.48000000	3.52132030	6.45142406	1.10000000	0.90000000	1.10000000	0.98045696	168.40000000	138.80000000	179.60000000	188.70000000	168.40000000
6	90.00000000	47.00000000	9.00000000	4.70000000	1.30000000	1.90997295	0.94905396	21.67000000	4.77989894	9.23739776	1.80000000	0.90000000	1.90000000	1.28655020	154.50000000	122.30000000	166.20000000	178.90000000	154.50000000
7	916.00000000	515.00000000	91.60000000	51.50000000	1.77000000	2.48610020	0.98810768	122.97000000	5.81837653	11.42802275	2.30000000	1.10000000	2.50000000	1.49908899	159.90000000	128.60000000	170.90000000	185.40000000	159.90000000
8	582.00000000	182.50000000	58.20000000	18.20000000	1.16000000	1.81280956	0.92671909	35.33000000	4.42842704	8.83309231	1.60000000	1.00000000	1.80000000	1.21530156	158.90000000	129.00000000	170.30000000	179.30000000	159.00000000
9	1270.50000000	862.00000000	127.10000000	86.20000000	0.42000000	0.82844439	0.76497955	67.90000000	2.38994946	5.00787443	0.70000000	0.70000000	0.80000000	0.72690743	122.80000000	95.00000000	132.60000000	144.90000000	122.80000000
10	549.50000000	463.00000000	55.00000000	46.30000000	1.14000000	1.99328594	0.92775965	53.43000000	4.62842705	9.48463023	1.70000000	0.90000000	2.00000000	1.20477927	145.90000000	118.60000000	155.50000000	168.20000000	145.90000000
11	897.50000000	419.50000000	89.80000000	42.00000000	1.82000000	2.51942616	1.39900246	23.41000000	7.41837654	12.56303793	2.70000000	1.20000000	2.50000000	1.52017426	135.40000000	108.60000000	145.40000000	154.10000000	135.40000000
12	896.50000000	653.00000000	89.70000000	65.30000000	0.25000000	0.66995831	0.56413527	135.00000000	1.93137082	3.88414950	0.60000000	0.60000000	0.70000000	0.56418958	105.10000000	84.10000000	113.80000000	116.00000000	105.20000000
13	626.00000000	662.00000000	62.60000000	66.20000000	2.00000000	2.06814022	1.71759663	17.01000000	7.47695518	11.91874991	2.20000000	1.60000000	2.10000000	1.59576912	152.40000000	121.60000000	162.80000000	180.10000000	152.40000000
14	500.50000000	215.00000000	50.10000000	21.50000000	1.62000000	2.16665516	1.47064991	126.40000000	6.05269115	11.53177333	2.20000000	1.20000000	2.20000000	1.43397415	145.00000000	119.00000000	154.80000000	163.40000000	145.00000000
15	162.50000000	471.50000000	16.20000000	47.20000000	5.35000000	2.71035938	2.54752102	85.39000000	8.90121925	16.52207957	2.70000000	2.50000000	2.70000000	2.60872869	214.70000000	193.40000000	222.30000000	231.80000000	214.70000000
16	145.50000000	36.00000000	14.60000000	3.60000000	2.26000000	3.30431519	0.93041306	134.24000000	7.93969698	14.37134252	3.30000000	0.90000000	3.30000000	1.69632584	109.00000000	88.00000000	116.60000000	125.00000000	109.00000000
17	811.00000000	13.00000000	81.10000000	1.30000000	1.90000000	2.34906387	1.18628798	120.97000000	5.76984841	11.40908848	2.10000000	1.30000000	2.30000000	1.55331547	113.50000000	92.70000000	121.80000000	125.60000000	113.50000000
18	118.00000000	711.00000000	11.80000000	71.10000000	0.08000000	0.00000000	0.00000000	0.00000000	1.13137083	1.13137083	0.30000000	0.30000000	0.00000000	0.31915382	77.80000000	70.10000000	82.80000000	72.80000000	77.80000000
19	315.50000000	38.00000000	31.60000000	3.80000000	4.09000000	4.53982391	1.92145882	154.07000000	12.39827552	21.14100515	5.00000000	1.70000000	4.50000000	2.28061034	118.00000000	95.30000000	126.30000000	135.10000000	118.00000000

#3
liczenie
obiektów (w)	udział punktów	pole obrazu(mm²)
	77	100.00	12288.0000
nr.	x(pix.):	y(pix.):	x(mm):	y(mm):	powierzchnia:(mm²)	długość:(mm)	szerokość:(mm)	kąt:(°)	obwód:(mm)	obwód C.:(mm)	średnica Fereta H(mm)	średnica Fereta V(mm)	średn. Martina:(mm)	średn. sitowa:(mm)	średnia jaskrawość	R	G	B	Y
1	646.00000000	949.00000000	64.60000000	94.90000000	0.77000000	1.19732170	0.86470518	152.36000000	3.55563489	6.52025638	1.10000000	0.90000000	1.20000000	0.98692870	135.90000000	105.80000000	145.80000000	164.10000000	135.90000000
2	1259.00000000	784.00000000	125.90000000	78.40000000	0.86000000	1.42188482	0.86341372	47.55000000	3.57989897	7.28707183	1.30000000	0.80000000	1.40000000	1.04641579	131.70000000	98.60000000	143.20000000	159.00000000	131.70000000
3	243.00000000	382.50000000	24.30000000	38.20000000	0.58000000	1.04986267	0.83231258	139.81000000	2.89705622	5.93279365	0.90000000	0.80000000	1.00000000	0.85934797	158.70000000	131.50000000	169.10000000	176.80000000	158.70000000
4	460.50000000	312.00000000	46.10000000	31.20000000	0.81000000	1.38140516	0.92320824	72.37000000	3.58994948	7.31188284	1.30000000	0.70000000	1.40000000	1.01240201	159.00000000	131.60000000	170.00000000	173.60000000	159.00000000
5	169.00000000	662.50000000	16.90000000	66.20000000	0.59000000	0.93135023	0.89573097	86.05000000	2.95563488	5.74049028	0.90000000	0.80000000	0.90000000	0.86304411	154.70000000	125.70000000	166.20000000	171.80000000	154.70000000
6	738.00000000	728.50000000	73.80000000	72.90000000	0.77000000	1.30698566	0.83402767	147.56000000	3.57989894	6.80850215	1.30000000	0.80000000	1.30000000	0.99014870	143.20000000	112.30000000	154.10000000	168.30000000	143.20000000
7	124.00000000	525.50000000	12.40000000	52.60000000	0.80000000	1.33718243	0.83926420	154.10000000	3.57989893	6.92727128	1.30000000	0.90000000	1.30000000	1.00925301	140.00000000	112.60000000	149.90000000	161.00000000	140.00000000
8	1178.00000000	852.00000000	117.80000000	85.20000000	0.94000000	1.60775013	0.82883368	161.81000000	3.97989894	7.85160073	1.50000000	0.80000000	1.60000000	1.09400419	133.00000000	100.60000000	144.10000000	161.20000000	133.00000000
9	477.50000000	664.50000000	47.80000000	66.50000000	0.72000000	1.25155573	0.84482279	144.90000000	3.29705625	6.64809274	1.10000000	0.80000000	1.30000000	0.95746147	152.90000000	121.80000000	164.40000000	175.20000000	152.90000000
10	396.50000000	514.00000000	39.70000000	51.40000000	1.24000000	1.74436779	0.98659153	66.24000000	4.37989893	8.74551384	1.50000000	1.10000000	1.70000000	1.25650986	162.60000000	126.50000000	175.00000000	193.50000000	162.60000000
11	217.00000000	212.50000000	21.70000000	21.20000000	0.40000000	0.78758268	0.75809574	135.00000000	2.33137082	4.85633380	0.70000000	0.70000000	0.80000000	0.71364965	158.80000000	131.50000000	170.30000000	171.90000000	158.90000000
12	249.50000000	538.00000000	25.00000000	53.80000000	0.77000000	1.28380985	0.96915827	44.98000000	3.46274171	7.11246433	1.30000000	0.70000000	1.30000000	0.99014870	143.50000000	115.80000000	153.70000000	164.10000000	143.50000000
13	180.50000000	559.00000000	18.10000000	55.90000000	0.63000000	1.05925522	0.83753281	40.75000000	2.95563489	5.97930867	1.00000000	0.80000000	1.10000000	0.89206206	126.20000000	101.60000000	135.10000000	145.30000000	126.30000000
14	359.00000000	416.00000000	35.90000000	41.60000000	0.59000000	1.09475365	0.79786949	13.40000000	3.01421353	5.98248385	1.10000000	0.70000000	1.10000000	0.86672448	149.20000000	122.00000000	159.50000000	167.40000000	149.20000000
15	729.00000000	475.00000000	72.90000000	47.50000000	0.75000000	1.21873074	0.87565508	117.60000000	3.29705622	6.62391965	1.10000000	0.80000000	1.20000000	0.97720502	141.30000000	116.40000000	151.00000000	156.60000000	141.30000000
16	659.50000000	445.00000000	66.00000000	44.50000000	0.33000000	0.76614094	0.67113414	130.08000000	2.35563488	4.52026658	0.60000000	0.60000000	0.80000000	0.64327510	157.40000000	130.50000000	168.30000000	171.60000000	157.30000000
17	88.00000000	622.50000000	8.80000000	62.20000000	0.46000000	0.91617346	0.73464742	61.86000000	2.61421353	5.20189579	0.80000000	0.80000000	0.90000000	0.76530399	114.80000000	95.50000000	121.90000000	129.20000000	114.80000000
18	1209.50000000	908.00000000	121.00000000	90.80000000	0.82000000	1.41442642	0.80893736	129.27000000	3.68700570	7.11502170	1.30000000	0.80000000	1.40000000	1.01867081	125.40000000	95.60000000	135.60000000	151.60000000	125.50000000
19	1009.50000000	783.50000000	101.00000000	78.40000000	0.24000000	0.62815928	0.56250734	164.27000000	1.84852812	3.74343319	0.60000000	0.50000000	0.60000000	0.55279064	113.70000000	88.40000000	123.40000000	130.50000000	113.70000000
20	424.00000000	188.00000000	42.40000000	18.80000000	0.54000000	0.99865189	0.79570236	73.18000000	2.73137082	5.65517301	0.90000000	0.70000000	1.00000000	0.82918596	164.30000000	133.90000000	176.50000000	181.10000000	164.30000000
21	546.50000000	736.50000000	54.70000000	73.70000000	1.25000000	1.69639359	1.04958763	146.72000000	4.74558434	8.74683284	1.60000000	1.00000000	1.70000000	1.26156626	145.70000000	118.00000000	155.40000000	168.80000000	145.70000000
22	696.00000000	812.00000000	69.60000000	81.20000000	0.95000000	1.21912889	1.13518162	45.00000000	3.57989893	7.39863573	1.10000000	1.00000000	1.20000000	1.09980797	168.80000000	141.30000000	179.20000000	187.80000000	168.80000000
23	481.50000000	573.00000000	48.20000000	57.30000000	0.43000000	0.84072704	0.72650752	62.63000000	2.55563487	4.93015264	0.80000000	0.60000000	0.80000000	0.73561322	123.60000000	101.40000000	131.70000000	140.40000000	123.60000000
24	338.50000000	740.50000000	33.90000000	74.00000000	0.85000000	1.40905848	0.95213451	91.48000000	3.73137083	7.48751647	1.40000000	0.70000000	1.40000000	1.04031419	148.60000000	117.20000000	159.40000000	174.90000000	148.60000000
25	171.50000000	138.00000000	17.20000000	13.80000000	0.91000000	1.49699192	0.86653032	110.55000000	4.26274166	7.55790542	1.40000000	1.00000000	1.50000000	1.07640512	155.00000000	126.40000000	166.30000000	171.80000000	155.00000000
26	23.50000000	170.00000000	2.40000000	17.00000000	0.65000000	1.00454884	0.95304251	83.49000000	3.12132027	6.15101899	0.90000000	0.80000000	1.00000000	0.90622266	170.20000000	143.90000000	180.30000000	186.60000000	170.20000000
27	312.00000000	490.00000000	31.20000000	49.00000000	0.77000000	1.21882324	0.96029530	31.42000000	3.29705623	6.87001335	1.10000000	0.80000000	1.20000000	0.99014870	162.40000000	132.80000000	173.60000000	182.60000000	162.40000000
28	12.00000000	608.00000000	1.20000000	60.80000000	1.03000000	1.27605953	1.13601503	108.22000000	3.86274166	7.58414312	1.10000000	1.10000000	1.30000000	1.14517978	175.50000000	148.40000000	185.80000000	193.20000000	175.50000000
29	1184.00000000	801.00000000	118.40000000	80.10000000	0.29000000	0.74111443	0.57992697	174.41000000	2.13137083	4.16563507	0.60000000	0.60000000	0.70000000	0.60765078	121.70000000	94.00000000	131.80000000	142.50000000	121.70000000
30	225.00000000	288.00000000	22.50000000	28.80000000	0.94000000	1.25903912	1.02368889	56.52000000	3.69705625	7.19047168	1.10000000	1.10000000	1.30000000	1.09400419	153.10000000	125.70000000	163.90000000	169.40000000	153.10000000
31	651.00000000	394.50000000	65.10000000	39.50000000	0.50000000	0.96247482	0.76520867	110.27000000	2.67279217	5.44538236	0.90000000	0.70000000	1.00000000	0.79388511	154.70000000	128.40000000	165.20000000	169.20000000	154.70000000
32	136.50000000	473.00000000	13.70000000	47.30000000	1.12000000	1.84709110	0.83765755	30.47000000	4.62842709	8.73520505	1.90000000	0.80000000	1.80000000	1.19416426	166.20000000	133.20000000	178.40000000	190.00000000	166.20000000
33	182.00000000	873.50000000	18.20000000	87.40000000	0.64000000	1.05552435	0.87233477	141.26000000	3.09705623	6.07022727	1.10000000	0.80000000	1.10000000	0.90270333	115.20000000	91.70000000	123.00000000	136.30000000	115.20000000
34	585.50000000	731.00000000	58.60000000	73.10000000	1.23000000	1.80576038	0.99676046	130.32000000	4.72132030	8.98877106	1.70000000	1.00000000	1.80000000	1.24888688	149.10000000	119.30000000	159.40000000	174.50000000	149.10000000
35	365.00000000	318.50000000	36.50000000	31.90000000	0.41000000	0.85116968	0.73334694	176.59000000	2.38994946	4.98478915	0.70000000	0.70000000	0.90000000	0.71809610	137.00000000	111.20000000	147.80000000	148.90000000	137.00000000
36	504.00000000	234.50000000	50.40000000	23.50000000	0.91000000	1.28845253	1.01694069	137.56000000	3.57989898	7.26774263	1.30000000	0.80000000	1.30000000	1.07640512	145.90000000	117.70000000	157.20000000	161.60000000	145.90000000
37	326.00000000	951.00000000	32.60000000	95.10000000	0.78000000	1.13562307	0.92531185	63.16000000	3.35563488	6.49148486	1.10000000	0.90000000	1.10000000	0.99335827	123.50000000	98.40000000	130.90000000	151.00000000	123.50000000
38	75.00000000	949.50000000	7.50000000	95.00000000	1.19000000	1.50283365	1.14442997	107.47000000	4.20416297	8.35477769	1.40000000	1.10000000	1.50000000	1.22832767	110.20000000	88.30000000	116.60000000	134.60000000	110.20000000
39	957.00000000	941.00000000	95.70000000	94.10000000	1.59000000	2.33650818	0.95891409	77.73000000	5.66274165	10.81034077	2.30000000	0.90000000	2.30000000	1.42283199	118.80000000	91.50000000	127.30000000	146.70000000	118.80000000
40	1238.00000000	412.00000000	123.80000000	41.20000000	0.72000000	1.19244976	0.88917141	28.49000000	3.46274166	6.57435538	1.10000000	0.80000000	1.20000000	0.95746147	110.20000000	81.90000000	121.20000000	127.60000000	110.20000000
41	936.50000000	460.00000000	93.70000000	46.00000000	1.93000000	2.15816975	1.19893417	73.68000000	5.68700571	10.76304072	2.10000000	1.30000000	2.20000000	1.56556256	159.30000000	123.90000000	171.70000000	187.70000000	159.30000000
42	562.00000000	499.50000000	56.20000000	50.00000000	1.54000000	2.26995811	1.02382460	84.55000000	5.23847760	10.72143636	2.10000000	0.90000000	2.30000000	1.39800669	173.30000000	142.30000000	184.70000000	195.30000000	173.20000000
43	83.50000000	563.50000000	8.30000000	56.40000000	0.80000000	1.50604563	0.83386974	5.31000000	3.61421355	7.50351439	1.40000000	0.70000000	1.50000000	1.00925301	149.00000000	121.20000000	158.90000000	171.70000000	149.00000000
44	144.50000000	260.00000000	14.50000000	26.00000000	0.85000000	1.22104769	0.98658619	28.84000000	3.55563488	6.95505736	1.10000000	0.90000000	1.20000000	1.03724993	164.30000000	138.30000000	174.50000000	179.60000000	164.30000000
45	273.50000000	303.00000000	27.40000000	30.30000000	0.42000000	0.82844439	0.76497955	22.10000000	2.38994946	5.00787443	0.70000000	0.70000000	0.80000000	0.72690743	154.50000000	127.20000000	165.90000000	167.60000000	154.50000000
46	675.50000000	930.00000000	67.50000000	93.00000000	0.39000000	0.76781664	0.72401576	45.00000000	2.27279217	4.68773979	0.70000000	0.60000000	0.80000000	0.70014086	107.80000000	87.60000000	115.00000000	124.00000000	107.80000000
47	509.50000000	205.50000000	51.00000000	20.60000000	0.64000000	1.07513618	0.84698324	136.57000000	3.01421354	6.05980478	0.90000000	0.90000000	1.10000000	0.90270333	146.40000000	118.70000000	158.00000000	159.70000000	146.40000000
48	939.00000000	773.50000000	93.90000000	77.40000000	0.38000000	0.82684183	0.68332157	135.00000000	2.33137082	4.75503685	0.70000000	0.70000000	0.80000000	0.69557963	99.60000000	77.70000000	107.60000000	115.80000000	99.60000000
49	192.00000000	667.50000000	19.20000000	66.80000000	0.54000000	0.93241472	0.85542278	40.57000000	2.86274163	5.61926154	0.80000000	0.80000000	0.90000000	0.82918596	116.90000000	95.60000000	124.90000000	132.50000000	117.00000000
50	899.00000000	158.50000000	89.90000000	15.90000000	0.39000000	0.79520574	0.71848621	21.51000000	2.33137082	4.75845797	0.70000000	0.70000000	0.80000000	0.70467256	99.20000000	78.60000000	107.10000000	112.80000000	99.20000000
51	662.00000000	739.50000000	66.20000000	74.00000000	1.20000000	2.19096737	0.98927326	153.36000000	4.80416300	10.35095339	1.80000000	1.00000000	2.20000000	1.23349960	155.50000000	122.80000000	167.10000000	182.30000000	155.60000000
52	347.50000000	904.50000000	34.80000000	90.50000000	2.93000000	3.44696808	1.34886637	151.85000000	7.86690474	15.79653457	3.10000000	1.40000000	3.40000000	1.92982529	166.20000000	132.10000000	178.00000000	195.00000000	166.20000000
53	1116.50000000	297.00000000	111.70000000	29.70000000	0.73000000	1.34349852	0.83153820	130.98000000	3.49705622	6.92805635	1.30000000	0.80000000	1.30000000	0.96408758	122.00000000	95.40000000	132.20000000	139.50000000	122.00000000
54	235.00000000	688.50000000	23.50000000	68.90000000	1.28000000	1.80274830	1.09996157	169.65000000	5.31126976	9.25326799	1.70000000	1.10000000	1.80000000	1.27661530	148.80000000	119.50000000	159.30000000	172.10000000	148.80000000
55	927.50000000	125.50000000	92.80000000	12.60000000	2.39000000	2.10232487	1.56806259	44.31000000	6.13553381	11.59202190	2.10000000	1.50000000	2.10000000	1.74260618	141.30000000	104.60000000	155.10000000	167.00000000	141.30000000
56	345.00000000	25.50000000	34.50000000	2.60000000	3.21000000	2.90266323	1.50911055	115.48000000	7.77401139	14.20792708	2.80000000	1.50000000	2.90000000	2.02165747	141.80000000	114.80000000	151.90000000	160.80000000	141.80000000
57	649.00000000	763.00000000	64.90000000	76.30000000	0.38000000	0.82684183	0.68332157	45.00000000	2.33137082	4.75503685	0.70000000	0.70000000	0.80000000	0.69557963	110.50000000	91.40000000	118.20000000	121.60000000	110.50000000
58	473.00000000	194.50000000	47.30000000	19.50000000	1.26000000	1.62041302	1.14992867	94.71000000	4.41421353	8.76615382	1.50000000	1.00000000	1.60000000	1.26660247	159.00000000	129.30000000	170.80000000	175.90000000	159.00000000
59	275.00000000	286.00000000	27.50000000	28.60000000	0.50000000	0.94625692	0.75890503	16.97000000	2.61421351	5.37310391	0.80000000	0.70000000	0.90000000	0.79788456	147.50000000	119.30000000	158.90000000	163.10000000	147.50000000
60	732.00000000	185.50000000	73.20000000	18.60000000	1.39000000	1.53283787	1.25680323	60.52000000	4.56984842	8.78538117	1.30000000	1.30000000	1.50000000	1.32794457	120.00000000	93.10000000	131.00000000	133.80000000	120.00000000
61	1075.50000000	171.50000000	107.60000000	17.20000000	1.89000000	1.78941536	1.47866535	85.42000000	5.34558433	10.29019852	1.90000000	1.30000000	1.80000000	1.55126488	112.60000000	84.30000000	123.40000000	131.20000000	112.60000000
62	718.00000000	680.50000000	71.80000000	68.00000000	0.34000000	0.95221214	0.69115863	135.00000000	2.32132031	5.19542291	0.60000000	0.60000000	1.00000000	0.65309666	104.70000000	85.60000000	111.50000000	120.60000000	104.80000000
63	376.00000000	122.00000000	37.60000000	12.20000000	0.23000000	0.59582787	0.55410476	7.83000000	1.78994948	3.61380895	0.60000000	0.50000000	0.60000000	0.53523723	136.90000000	112.70000000	148.40000000	141.20000000	136.90000000
64	148.50000000	945.50000000	14.90000000	94.60000000	0.54000000	1.05329370	0.72851176	132.38000000	2.97989894	5.64430009	1.00000000	0.70000000	1.10000000	0.82918596	99.80000000	81.70000000	105.80000000	116.80000000	99.80000000
65	437.50000000	124.00000000	43.80000000	12.40000000	0.46000000	1.10507193	0.68734899	174.06000000	3.32132030	5.70777814	1.10000000	0.70000000	1.10000000	0.76113336	120.90000000	98.40000000	131.00000000	128.00000000	120.90000000
66	672.00000000	333.50000000	67.20000000	33.40000000	1.77000000	2.29796314	1.23333120	178.98000000	6.19411248	11.34744381	2.30000000	1.30000000	2.30000000	1.50121084	152.60000000	124.60000000	163.10000000	172.60000000	152.70000000
67	1232.00000000	547.50000000	123.20000000	54.80000000	1.74000000	2.12681465	1.48475704	2.41000000	6.25269113	11.43591381	2.10000000	1.30000000	2.10000000	1.48629425	108.60000000	82.20000000	118.30000000	128.60000000	108.70000000
68	246.00000000	24.00000000	24.60000000	2.40000000	0.28000000	0.72516026	0.58774362	5.88000000	2.15563488	4.13591323	0.60000000	0.60000000	0.70000000	0.59172703	115.30000000	94.70000000	124.90000000	119.80000000	115.30000000
69	963.00000000	194.50000000	96.30000000	19.50000000	5.14000000	4.03185463	1.99624500	75.38000000	9.75979788	19.48167763	3.60000000	2.00000000	4.00000000	2.55821251	161.60000000	122.70000000	175.20000000	193.80000000	161.60000000
70	359.50000000	122.00000000	36.00000000	12.20000000	0.42000000	0.84805145	0.75065904	140.21000000	2.49705623	5.02715804	0.70000000	0.70000000	0.80000000	0.73127328	137.00000000	111.50000000	146.80000000	153.10000000	137.00000000
71	47.00000000	885.50000000	4.70000000	88.60000000	1.36000000	2.08180332	0.93341808	134.97000000	4.99411247	9.81934668	1.80000000	1.00000000	2.10000000	1.31590493	100.70000000	82.90000000	106.60000000	117.10000000	100.70000000
72	237.50000000	344.50000000	23.80000000	34.50000000	2.47000000	3.15715370	1.29390783	18.98000000	7.62842704	14.60303249	2.90000000	1.30000000	3.20000000	1.77338706	181.00000000	149.70000000	192.30000000	205.00000000	181.00000000
73	345.00000000	117.00000000	34.50000000	11.70000000	1.12000000	1.49067631	1.08240004	151.43000000	4.20416303	8.13451812	1.30000000	1.10000000	1.50000000	1.19149574	138.70000000	111.40000000	150.00000000	152.40000000	138.70000000
74	535.50000000	945.50000000	53.60000000	94.60000000	1.83000000	2.21668167	1.19653111	152.85000000	6.14558434	10.96376433	2.20000000	1.30000000	2.20000000	1.52644304	149.70000000	117.90000000	160.10000000	179.60000000	149.70000000
75	397.00000000	740.00000000	39.70000000	74.00000000	0.38000000	0.74600902	0.72280312	8.06000000	2.27279217	4.61469736	0.70000000	0.60000000	0.70000000	0.69098830	99.70000000	83.60000000	106.10000000	108.60000000	99.70000000
76	833.50000000	403.50000000	83.40000000	40.40000000	0.23000000	0.59582787	0.55410476	7.83000000	1.78994948	3.61380895	0.60000000	0.50000000	0.60000000	0.53523723	103.80000000	86.40000000	112.00000000	107.40000000	103.80000000
77	437.00000000	912.50000000	43.70000000	91.20000000	0.49000000	0.95091133	0.76866345	158.19000000	2.63847758	5.41738448	0.80000000	0.70000000	1.00000000	0.78582516	94.90000000	77.60000000	100.50000000	111.60000000	94.90000000

#4
liczenie
obiektów (w)	udział punktów	pole obrazu(mm²)
	69	100.00	12288.0000
nr.	x(pix.):	y(pix.):	x(mm):	y(mm):	powierzchnia:(mm²)	długość:(mm)	szerokość:(mm)	kąt:(°)	obwód:(mm)	obwód C.:(mm)	średnica Fereta H(mm)	średnica Fereta V(mm)	średn. Martina:(mm)	średn. sitowa:(mm)	średnia jaskrawość	R	G	B	Y
1	1159.50000000	711.00000000	116.00000000	71.10000000	0.52000000	0.98123064	0.77948256	112.77000000	2.75563487	5.54961459	0.80000000	0.80000000	1.00000000	0.80976439	130.70000000	95.50000000	142.70000000	161.50000000	130.70000000
2	50.50000000	812.00000000	5.10000000	81.20000000	0.80000000	1.17011776	0.98839521	18.28000000	3.29705622	6.79318964	1.10000000	0.90000000	1.20000000	1.00925301	144.60000000	108.20000000	158.10000000	170.80000000	144.60000000
3	127.50000000	529.00000000	12.80000000	52.90000000	0.24000000	0.62815928	0.56250734	105.73000000	1.84852812	3.74343319	0.60000000	0.50000000	0.60000000	0.55279064	143.90000000	112.90000000	156.40000000	161.30000000	144.00000000
4	1211.50000000	725.00000000	121.20000000	72.50000000	0.88000000	1.25520859	1.02805328	64.79000000	3.47279216	7.19083897	1.10000000	0.90000000	1.30000000	1.05550206	141.80000000	106.80000000	154.20000000	169.50000000	141.80000000
5	142.50000000	586.00000000	14.20000000	58.60000000	0.71000000	1.23600559	0.84364595	153.40000000	3.35563488	6.59168758	1.20000000	0.80000000	1.20000000	0.94743542	136.90000000	102.40000000	149.40000000	163.50000000	137.00000000
6	830.00000000	948.00000000	83.00000000	94.80000000	0.86000000	1.15260220	1.04624949	85.26000000	3.63847759	6.91193697	1.20000000	1.00000000	1.20000000	1.04336945	134.20000000	96.90000000	145.50000000	173.70000000	134.20000000
7	221.50000000	424.50000000	22.20000000	42.50000000	0.54000000	1.13127632	0.71371651	42.04000000	2.83847760	5.87067862	1.00000000	0.60000000	1.10000000	0.82533821	145.80000000	111.50000000	159.20000000	167.10000000	145.80000000
8	584.50000000	941.50000000	58.50000000	94.20000000	0.69000000	1.10975409	0.88355837	60.74000000	3.29705625	6.28235170	1.10000000	0.90000000	1.10000000	0.93730213	125.60000000	93.20000000	135.50000000	160.10000000	125.60000000
9	504.00000000	793.00000000	50.40000000	79.30000000	0.53000000	1.00811176	0.74865890	102.65000000	2.81421353	5.54919387	0.90000000	0.80000000	1.00000000	0.82147243	134.80000000	99.70000000	147.50000000	161.10000000	134.80000000
10	1015.00000000	829.00000000	101.50000000	82.90000000	1.16000000	1.68371658	0.98034544	137.05000000	4.26274165	8.51589726	1.60000000	0.90000000	1.70000000	1.21530156	151.20000000	112.20000000	164.90000000	183.50000000	151.30000000
11	757.00000000	763.50000000	75.70000000	76.40000000	2.18000000	3.15158634	0.96577454	68.41000000	7.05269113	13.86377288	3.00000000	1.00000000	3.20000000	1.66412019	156.50000000	117.50000000	169.60000000	191.30000000	156.50000000
12	211.00000000	621.50000000	21.10000000	62.20000000	0.78000000	1.60849152	0.70951581	43.72000000	3.86274165	7.55873543	1.40000000	0.70000000	1.60000000	0.99655750	161.50000000	121.60000000	176.00000000	192.00000000	161.50000000
13	1177.00000000	788.50000000	117.70000000	78.90000000	0.42000000	0.82844439	0.76497955	22.10000000	2.38994946	5.00787443	0.70000000	0.70000000	0.80000000	0.72690743	129.70000000	96.40000000	141.10000000	159.10000000	129.80000000
14	432.00000000	740.50000000	43.20000000	74.00000000	0.88000000	1.46636906	0.84977026	20.60000000	3.69705623	7.40587078	1.30000000	0.90000000	1.50000000	1.05851349	162.10000000	121.00000000	177.40000000	191.60000000	162.10000000
15	172.50000000	461.00000000	17.20000000	46.10000000	1.69000000	2.15593529	1.20996037	178.18000000	5.29705621	10.78413354	2.10000000	0.90000000	2.20000000	1.46689292	152.50000000	113.60000000	166.40000000	182.90000000	152.50000000
16	752.00000000	600.00000000	75.20000000	60.00000000	0.69000000	1.24641933	0.80842113	89.36000000	3.29705622	6.52900809	1.30000000	0.70000000	1.20000000	0.93730213	150.00000000	116.40000000	162.20000000	175.50000000	150.00000000
17	1037.50000000	733.50000000	103.80000000	73.40000000	0.97000000	1.62165833	0.97232828	24.63000000	4.42842706	8.27741675	1.60000000	0.90000000	1.60000000	1.11132460	128.10000000	92.30000000	139.60000000	163.10000000	128.20000000
18	925.00000000	806.00000000	92.50000000	80.60000000	0.46000000	0.86367378	0.80583191	45.00000000	2.50710677	5.24648087	0.70000000	0.70000000	0.90000000	0.76113336	161.90000000	125.50000000	175.60000000	186.90000000	161.90000000
19	803.50000000	907.00000000	80.40000000	90.70000000	0.65000000	1.07085857	0.85237751	32.11000000	3.01421353	6.06153340	0.90000000	0.90000000	1.10000000	0.90972837	130.90000000	97.00000000	142.80000000	158.40000000	130.90000000
20	350.00000000	484.00000000	35.00000000	48.40000000	1.00000000	1.70873947	0.89585352	33.85000000	4.79411247	8.38306896	1.70000000	1.00000000	1.70000000	1.12837917	151.30000000	113.50000000	164.80000000	181.40000000	151.30000000
21	246.00000000	729.00000000	24.60000000	72.90000000	0.46000000	0.92192955	0.73717546	67.06000000	2.63847759	5.22840330	0.80000000	0.60000000	0.90000000	0.76113336	109.20000000	81.70000000	118.90000000	131.90000000	109.20000000
22	58.00000000	521.00000000	5.80000000	52.10000000	0.79000000	1.67369003	0.84462185	140.75000000	4.02842709	8.12737178	1.20000000	0.90000000	1.70000000	1.00292534	152.80000000	118.80000000	165.10000000	178.40000000	152.80000000
23	81.50000000	741.50000000	8.20000000	74.20000000	0.54000000	1.01874952	0.84120474	80.80000000	3.06274166	5.85653702	0.90000000	0.70000000	1.00000000	0.82918596	144.00000000	109.00000000	157.00000000	168.60000000	144.00000000
24	639.50000000	941.50000000	64.00000000	94.20000000	1.54000000	1.53445950	1.34462852	55.84000000	4.72132028	9.05475480	1.50000000	1.30000000	1.50000000	1.39800669	169.90000000	131.70000000	183.90000000	198.00000000	169.90000000
25	1125.00000000	781.50000000	112.50000000	78.20000000	0.47000000	0.91006765	0.77861009	81.21000000	2.61421351	5.31317801	0.80000000	0.70000000	0.90000000	0.77357778	132.40000000	96.10000000	144.60000000	164.80000000	132.40000000
26	1198.50000000	406.50000000	119.90000000	40.70000000	0.60000000	1.15474691	0.74995728	106.48000000	3.07279217	6.05156250	1.10000000	0.70000000	1.20000000	0.87038930	119.80000000	89.00000000	131.80000000	139.20000000	119.80000000
27	1230.50000000	431.50000000	123.10000000	43.20000000	0.72000000	1.28520565	0.82941780	51.03000000	3.37989898	6.72067043	1.30000000	0.70000000	1.30000000	0.95746147	133.90000000	98.60000000	147.00000000	159.00000000	133.90000000
28	455.00000000	690.50000000	45.50000000	69.00000000	1.16000000	1.70513706	0.94961853	160.44000000	4.37989894	8.50990456	1.70000000	0.90000000	1.70000000	1.21530156	147.60000000	112.60000000	159.80000000	177.00000000	147.60000000
29	828.50000000	661.50000000	82.90000000	66.20000000	0.42000000	0.79317255	0.75809669	93.51000000	2.47279217	4.87407899	0.80000000	0.70000000	0.80000000	0.72690743	151.80000000	117.80000000	164.10000000	177.60000000	151.80000000
30	98.50000000	615.00000000	9.90000000	61.50000000	0.86000000	1.58413458	0.77819400	38.33000000	3.80416300	7.63904416	1.40000000	0.70000000	1.60000000	1.04336945	160.10000000	122.70000000	174.00000000	186.90000000	160.10000000
31	458.00000000	367.00000000	45.80000000	36.70000000	1.11000000	1.41892862	1.11196852	102.44000000	4.73553383	7.98031497	1.20000000	1.10000000	1.40000000	1.18614067	152.30000000	116.70000000	165.20000000	179.80000000	152.40000000
32	546.50000000	638.00000000	54.70000000	63.80000000	0.90000000	1.44491873	0.94464607	69.69000000	3.83847759	7.58952630	1.40000000	0.90000000	1.40000000	1.06749679	165.00000000	129.20000000	177.50000000	194.70000000	165.00000000
33	801.00000000	878.50000000	80.10000000	87.90000000	0.39000000	0.83395882	0.67294393	37.07000000	2.33137082	4.74759679	0.70000000	0.70000000	0.80000000	0.70467256	95.80000000	70.60000000	103.00000000	124.90000000	95.80000000
34	1014.00000000	878.00000000	101.40000000	87.80000000	0.35000000	0.78422256	0.66364512	172.41000000	2.33137083	4.55650055	0.70000000	0.60000000	0.80000000	0.66755812	107.50000000	75.80000000	116.90000000	143.00000000	107.60000000
35	877.00000000	401.00000000	87.70000000	40.10000000	1.67000000	1.72189159	1.34167099	154.78000000	4.97989894	9.66156400	1.50000000	1.40000000	1.70000000	1.45818724	145.40000000	108.70000000	158.20000000	175.70000000	145.40000000
36	896.00000000	810.00000000	89.60000000	81.00000000	0.35000000	0.75410194	0.68958530	59.65000000	2.21421351	4.53774197	0.60000000	0.60000000	0.80000000	0.66755812	91.00000000	67.60000000	98.20000000	115.60000000	91.00000000
37	1161.50000000	947.50000000	116.20000000	94.80000000	1.45000000	2.20701599	0.96182995	38.35000000	5.08700570	10.34337252	2.00000000	1.00000000	2.20000000	1.35640375	135.90000000	96.70000000	147.60000000	178.30000000	135.90000000
38	961.00000000	417.00000000	96.10000000	41.70000000	0.29000000	0.75800486	0.59847107	91.81000000	2.07279217	4.27624371	0.60000000	0.60000000	0.80000000	0.60238963	151.40000000	118.90000000	165.30000000	165.20000000	151.40000000
39	480.00000000	326.50000000	48.00000000	32.60000000	1.92000000	1.84997940	1.43716421	170.20000000	5.48700570	10.36762415	1.70000000	1.40000000	1.80000000	1.56149087	149.10000000	113.40000000	162.10000000	176.00000000	149.10000000
40	1217.50000000	296.00000000	121.80000000	29.60000000	1.47000000	1.48580790	1.43368778	89.95000000	4.60416304	9.17259698	1.50000000	1.30000000	1.50000000	1.36575837	114.50000000	82.40000000	126.60000000	136.70000000	114.50000000
41	353.50000000	675.00000000	35.40000000	67.50000000	1.26000000	1.90566978	1.11039639	15.61000000	5.08700571	9.64067536	1.80000000	1.00000000	1.90000000	1.26408688	132.60000000	98.60000000	144.20000000	162.20000000	132.60000000
42	178.00000000	705.00000000	17.80000000	70.50000000	0.94000000	1.71700497	0.76703286	40.54000000	4.20416300	8.09187831	1.60000000	0.70000000	1.70000000	1.09109073	159.90000000	120.20000000	174.50000000	189.00000000	159.90000000
43	1244.00000000	254.50000000	124.40000000	25.50000000	1.13000000	1.34261732	1.19094505	91.11000000	4.71126976	7.96655387	1.40000000	1.10000000	1.30000000	1.19948351	104.20000000	73.90000000	115.50000000	125.10000000	104.20000000
44	454.50000000	773.50000000	45.50000000	77.40000000	1.35000000	2.31659069	0.78904810	33.05000000	5.25269111	10.35627194	2.20000000	0.80000000	2.30000000	1.30862798	147.40000000	109.70000000	160.20000000	180.50000000	147.40000000
45	1015.00000000	261.00000000	101.50000000	26.10000000	1.67000000	1.73837318	1.31598930	76.08000000	4.96984839	9.64149368	1.50000000	1.40000000	1.70000000	1.45600269	120.50000000	86.40000000	132.80000000	145.80000000	120.40000000
46	1128.50000000	257.00000000	112.90000000	25.70000000	1.85000000	1.94019299	1.29315729	11.53000000	5.28700572	10.25982018	1.90000000	1.30000000	1.90000000	1.53268619	114.00000000	80.90000000	125.70000000	140.60000000	114.00000000
47	163.50000000	557.00000000	16.40000000	55.70000000	0.56000000	1.11304111	0.76126285	110.02000000	3.26274165	5.94026941	1.00000000	0.80000000	1.10000000	0.84440165	86.80000000	65.60000000	94.10000000	105.00000000	86.80000000
48	637.00000000	529.50000000	63.70000000	53.00000000	1.69000000	2.07783966	1.40575781	72.82000000	6.38406196	11.04612051	2.00000000	1.40000000	2.10000000	1.46472135	142.90000000	107.90000000	154.80000000	172.80000000	142.80000000
49	50.00000000	189.00000000	5.00000000	18.90000000	1.52000000	1.58379021	1.36071453	13.25000000	4.85269114	9.26371262	1.40000000	1.30000000	1.60000000	1.38886929	114.80000000	86.60000000	125.50000000	133.70000000	114.80000000
50	320.50000000	649.00000000	32.10000000	64.90000000	1.67000000	2.26419201	1.41176281	19.19000000	6.36984839	11.70413330	2.30000000	1.20000000	2.30000000	1.45600269	138.80000000	103.80000000	150.70000000	169.20000000	138.80000000
51	859.50000000	788.50000000	86.00000000	78.90000000	1.37000000	1.98326607	1.27585812	89.41000000	5.53553388	10.35979482	1.90000000	1.10000000	2.00000000	1.31832165	137.20000000	101.60000000	148.80000000	171.00000000	137.20000000
52	1007.50000000	441.00000000	100.80000000	44.10000000	0.29000000	0.71271935	0.62751999	73.24000000	2.04852812	4.21474095	0.70000000	0.50000000	0.70000000	0.60765078	114.10000000	87.80000000	125.20000000	126.30000000	114.20000000
53	112.50000000	466.00000000	11.20000000	46.60000000	0.58000000	1.24225140	0.65821438	67.01000000	3.07279218	6.11230654	1.10000000	0.70000000	1.20000000	0.85563587	135.90000000	103.50000000	148.60000000	156.30000000	136.00000000
54	713.00000000	656.00000000	71.30000000	65.60000000	2.31000000	2.32132587	1.43776302	42.42000000	6.59411247	11.97320783	2.20000000	1.60000000	2.30000000	1.71498786	180.20000000	143.30000000	192.90000000	212.00000000	180.20000000
55	1203.00000000	923.00000000	120.30000000	92.30000000	0.49000000	0.96998367	0.75650797	69.43000000	2.61421350	5.44468444	0.80000000	0.70000000	1.00000000	0.78986542	85.40000000	62.80000000	92.00000000	111.40000000	85.50000000
56	62.50000000	437.00000000	6.20000000	43.70000000	0.30000000	0.76012621	0.57615008	71.52000000	2.04852812	4.21795321	0.70000000	0.50000000	0.80000000	0.61803872	95.40000000	75.80000000	103.40000000	105.70000000	95.40000000
57	134.00000000	298.00000000	13.40000000	29.80000000	1.18000000	1.35648212	1.19229412	70.83000000	4.09705623	8.01552582	1.30000000	1.10000000	1.40000000	1.22573352	117.70000000	87.50000000	129.60000000	136.00000000	117.70000000
58	14.00000000	582.50000000	1.40000000	58.20000000	1.53000000	2.17640781	1.30503492	55.99000000	6.02842706	11.10924901	2.20000000	1.20000000	2.20000000	1.39572795	134.70000000	104.70000000	144.80000000	161.80000000	134.70000000
59	199.50000000	767.50000000	20.00000000	76.80000000	0.82000000	1.24100552	0.90489063	154.79000000	3.57989894	6.78294358	1.20000000	0.90000000	1.20000000	1.02179079	162.20000000	124.50000000	176.10000000	190.10000000	162.20000000
60	616.50000000	269.00000000	61.70000000	26.90000000	2.80000000	2.45895729	1.49619160	70.10000000	6.87695520	12.61022243	2.40000000	1.60000000	2.50000000	1.88813949	133.10000000	95.60000000	146.40000000	163.20000000	133.10000000
61	582.50000000	501.00000000	58.20000000	50.10000000	1.53000000	1.96809425	1.14270010	47.90000000	5.25269110	9.94562434	1.80000000	1.10000000	2.00000000	1.39344548	138.70000000	105.40000000	150.20000000	166.90000000	138.70000000
62	1264.00000000	420.00000000	126.40000000	42.00000000	2.43000000	3.18236008	1.08980598	137.87000000	7.97401140	14.23927554	3.10000000	1.10000000	3.20000000	1.75896904	118.70000000	85.50000000	129.50000000	150.30000000	118.70000000
63	278.00000000	477.00000000	27.80000000	47.70000000	1.81000000	2.14912033	1.40397444	177.88000000	6.16984839	11.28545181	2.10000000	1.30000000	2.10000000	1.51598067	134.40000000	100.80000000	146.20000000	161.00000000	134.30000000
64	687.50000000	629.00000000	68.80000000	62.90000000	0.24000000	0.62815928	0.56250734	105.73000000	1.84852812	3.74343319	0.60000000	0.50000000	0.60000000	0.55279064	98.70000000	77.90000000	107.00000000	110.20000000	98.70000000
65	7.00000000	563.50000000	0.70000000	56.40000000	0.35000000	1.78069077	1.21853876	80.88000000	2.93137083	9.50529452	1.10000000	0.50000000	1.80000000	0.66755812	132.80000000	106.60000000	141.60000000	156.10000000	132.80000000
66	222.00000000	771.50000000	22.20000000	77.20000000	1.51000000	2.30621490	0.86458492	36.29000000	5.70121926	10.48317514	2.30000000	0.90000000	2.30000000	1.38427798	165.80000000	122.80000000	181.30000000	199.40000000	165.80000000
67	7.50000000	389.00000000	0.80000000	38.90000000	1.11000000	3.59990997	2.53502064	41.10000000	6.08700571	19.41890251	2.50000000	0.70000000	3.60000000	1.18614067	110.80000000	80.80000000	119.00000000	147.40000000	110.80000000
68	389.00000000	442.50000000	38.90000000	44.20000000	5.38000000	4.13947105	1.73363800	29.20000000	11.02253953	19.23341975	3.80000000	1.90000000	4.10000000	2.61725596	168.80000000	128.60000000	182.20000000	204.70000000	168.80000000
69	901.50000000	417.00000000	90.20000000	41.70000000	0.24000000	0.62815928	0.56250734	105.73000000	1.84852812	3.74343319	0.60000000	0.50000000	0.60000000	0.55279064	92.40000000	71.90000000	101.20000000	101.40000000	92.40000000

#5
liczenie
obiektów (w)	udział punktów	pole obrazu(mm²)
	49	100.00	12288.0000
nr.	x(pix.):	y(pix.):	x(mm):	y(mm):	powierzchnia:(mm²)	długość:(mm)	szerokość:(mm)	kąt:(°)	obwód:(mm)	obwód C.:(mm)	średnica Fereta H(mm)	średnica Fereta V(mm)	średn. Martina:(mm)	średn. sitowa:(mm)	średnia jaskrawość	R	G	B	Y
1	601.50000000	945.00000000	60.20000000	94.50000000	0.55000000	0.97700548	0.81502333	1.80000000	2.89705622	5.64132993	0.90000000	0.80000000	1.00000000	0.83682839	140.70000000	107.20000000	152.90000000	165.60000000	140.70000000
2	627.50000000	895.50000000	62.80000000	89.60000000	0.64000000	1.07758093	0.84293470	136.29000000	3.21421354	6.05601530	0.90000000	0.90000000	1.10000000	0.90270333	140.20000000	104.10000000	152.90000000	169.80000000	140.20000000
3	1265.00000000	796.00000000	126.50000000	79.60000000	0.88000000	1.37556448	0.91238527	40.19000000	3.57989894	7.26164144	1.30000000	0.80000000	1.40000000	1.05851349	140.50000000	101.50000000	154.10000000	172.70000000	140.50000000
4	1270.00000000	335.50000000	127.00000000	33.60000000	0.59000000	1.01488523	0.82190666	166.22000000	2.95563489	5.78638680	0.90000000	0.80000000	1.00000000	0.86304411	150.60000000	112.60000000	164.00000000	181.40000000	150.60000000
5	1034.00000000	719.00000000	103.40000000	71.90000000	0.31000000	0.78087878	0.59951677	158.41000000	2.29705623	4.35537535	0.60000000	0.60000000	0.80000000	0.62825493	151.90000000	114.30000000	166.00000000	177.70000000	151.90000000
6	761.00000000	619.50000000	76.10000000	62.00000000	0.51000000	0.99404421	0.80392990	99.86000000	2.73137083	5.66430164	0.90000000	0.70000000	1.00000000	0.80582391	154.40000000	115.20000000	168.30000000	185.40000000	154.40000000
7	83.00000000	479.50000000	8.30000000	48.00000000	0.61000000	1.02468204	0.82455454	133.39000000	3.17989894	5.82657082	1.00000000	0.80000000	1.00000000	0.88129230	142.80000000	107.80000000	155.90000000	166.60000000	142.80000000
8	481.00000000	306.00000000	48.10000000	30.60000000	0.39000000	0.76781664	0.72401576	45.00000000	2.27279217	4.68773979	0.70000000	0.60000000	0.80000000	0.70014086	131.40000000	100.70000000	143.30000000	150.60000000	131.40000000
9	694.00000000	336.50000000	69.40000000	33.60000000	0.52000000	0.98629475	0.78314023	169.43000000	2.67279216	5.57717834	0.90000000	0.70000000	1.00000000	0.80976439	159.70000000	123.00000000	173.60000000	185.00000000	159.80000000
10	133.00000000	343.50000000	13.30000000	34.40000000	0.88000000	1.46727352	0.90013628	166.68000000	3.81421353	7.54453256	1.30000000	0.90000000	1.50000000	1.05851349	154.90000000	115.80000000	169.20000000	184.20000000	154.90000000
11	981.50000000	356.50000000	98.20000000	35.60000000	1.01000000	1.32820873	1.02828932	133.96000000	3.89705625	7.43316746	1.20000000	1.10000000	1.30000000	1.13400703	172.90000000	134.10000000	187.10000000	201.80000000	172.90000000
12	465.50000000	483.50000000	46.60000000	48.40000000	0.51000000	0.96674681	0.75397835	15.14000000	2.67279216	5.42650030	0.90000000	0.70000000	1.00000000	0.80186406	146.20000000	109.40000000	160.00000000	172.40000000	146.30000000
13	321.00000000	596.50000000	32.10000000	59.70000000	0.42000000	0.82490692	0.71919541	33.86000000	2.38994948	4.85662627	0.70000000	0.70000000	0.80000000	0.72690743	121.60000000	90.00000000	132.60000000	148.50000000	121.70000000
14	891.50000000	607.50000000	89.20000000	60.80000000	1.05000000	1.70862370	0.92257509	37.87000000	4.48700572	8.45163878	1.70000000	0.90000000	1.70000000	1.15348833	149.70000000	111.80000000	162.60000000	183.30000000	149.80000000
15	990.00000000	744.00000000	99.00000000	74.40000000	1.14000000	1.43037653	1.14507341	87.00000000	4.12132027	8.11585646	1.30000000	1.20000000	1.40000000	1.20213430	111.00000000	80.30000000	120.70000000	142.30000000	111.10000000
16	1191.50000000	395.50000000	119.20000000	39.60000000	0.70000000	1.28037481	0.78726916	49.92000000	3.23847760	6.58839038	1.20000000	0.70000000	1.30000000	0.94069202	135.60000000	99.40000000	148.60000000	164.30000000	135.70000000
17	460.00000000	233.50000000	46.00000000	23.40000000	1.23000000	1.45548096	1.16865902	166.91000000	4.15563488	8.26861956	1.30000000	1.10000000	1.50000000	1.24888688	168.90000000	126.50000000	183.80000000	203.50000000	168.90000000
18	1214.00000000	873.00000000	121.40000000	87.30000000	1.41000000	2.46614285	0.81077518	17.89000000	5.68700571	10.96273066	2.30000000	0.80000000	2.50000000	1.33749825	117.80000000	81.10000000	128.70000000	157.60000000	117.80000000
19	596.50000000	78.00000000	59.70000000	7.80000000	1.19000000	1.37233639	1.19914989	104.49000000	4.46274166	8.08772582	1.40000000	1.10000000	1.40000000	1.23091635	154.50000000	116.10000000	168.20000000	184.60000000	154.50000000
20	235.00000000	464.50000000	23.50000000	46.50000000	1.06000000	1.69725380	1.01853085	88.31000000	4.35563488	8.66564060	1.80000000	0.70000000	1.70000000	1.15899427	170.90000000	132.30000000	185.40000000	197.70000000	170.90000000
21	627.00000000	355.00000000	62.70000000	35.50000000	0.97000000	1.24286900	1.06671553	38.69000000	3.77989894	7.26632970	1.30000000	1.00000000	1.20000000	1.11132460	185.20000000	151.10000000	197.40000000	211.70000000	185.20000000
22	155.00000000	122.00000000	15.50000000	12.20000000	0.84000000	1.38462095	0.89616356	8.74000000	3.77989895	7.24769386	1.40000000	0.90000000	1.40000000	1.03417659	159.40000000	120.00000000	173.90000000	188.20000000	159.40000000
23	339.50000000	402.50000000	34.00000000	40.20000000	1.25000000	1.90138683	1.13239565	156.50000000	5.16984843	9.68462412	1.80000000	1.10000000	1.90000000	1.25904060	153.90000000	117.90000000	166.60000000	182.50000000	153.90000000
24	573.00000000	808.00000000	57.30000000	80.80000000	1.45000000	1.99614773	1.14532099	0.82000000	5.51126978	10.05104411	2.10000000	1.10000000	2.00000000	1.35874845	142.30000000	103.80000000	155.20000000	177.00000000	142.30000000
25	271.00000000	764.00000000	27.10000000	76.40000000	1.22000000	1.71653671	0.98009148	123.33000000	4.54558436	8.63041872	1.70000000	1.00000000	1.70000000	1.24633553	150.60000000	112.70000000	163.80000000	182.40000000	150.60000000
26	853.50000000	527.00000000	85.40000000	52.70000000	1.25000000	1.62711143	1.20466204	107.50000000	4.68700570	8.94584519	1.60000000	1.10000000	1.60000000	1.25904060	155.50000000	119.20000000	168.10000000	185.30000000	155.40000000
27	437.00000000	539.50000000	43.70000000	54.00000000	1.45000000	2.09529457	1.15853958	35.79000000	5.48700573	10.43515219	2.10000000	1.10000000	2.10000000	1.35640375	147.00000000	110.50000000	159.30000000	179.30000000	147.00000000
28	269.50000000	539.50000000	27.00000000	54.00000000	1.51000000	2.28768883	0.94464655	3.64000000	5.48700572	10.59791049	2.10000000	0.90000000	2.30000000	1.38427798	163.90000000	122.60000000	178.90000000	195.70000000	164.00000000
29	195.00000000	192.00000000	19.50000000	19.20000000	2.67000000	2.88688030	1.28787565	150.91000000	7.25269115	13.60097932	3.00000000	1.30000000	2.90000000	1.84205955	168.00000000	130.30000000	181.40000000	197.90000000	168.00000000
30	1132.50000000	169.50000000	113.20000000	16.90000000	1.33000000	1.91912575	1.08250170	54.25000000	5.14558436	9.61394225	1.80000000	1.10000000	1.90000000	1.30131034	118.90000000	85.80000000	130.30000000	147.20000000	118.90000000
31	24.00000000	263.00000000	2.40000000	26.30000000	1.30000000	1.86975212	1.36950865	103.46000000	5.16984842	10.23720341	1.90000000	1.10000000	1.90000000	1.28407368	140.10000000	108.00000000	151.50000000	165.30000000	140.00000000
32	51.50000000	273.00000000	5.20000000	27.30000000	1.58000000	2.10525322	1.35330029	55.37000000	6.41837651	10.99415366	2.10000000	1.20000000	2.10000000	1.41610462	146.90000000	112.60000000	158.90000000	174.80000000	146.90000000
33	762.50000000	263.50000000	76.20000000	26.40000000	0.28000000	0.76746964	0.56164718	85.42000000	1.98994946	4.20061435	0.70000000	0.50000000	0.80000000	0.59172703	100.70000000	78.50000000	109.80000000	112.50000000	100.70000000
34	119.00000000	810.00000000	11.90000000	81.00000000	6.96000000	10.60939636	1.04544163	132.58000000	22.57472564	43.09909314	10.00000000	1.10000000	10.60000000	2.97579923	104.90000000	77.10000000	113.70000000	132.50000000	104.90000000
35	735.50000000	361.00000000	73.50000000	36.10000000	0.28000000	0.76746964	0.56164718	85.42000000	1.98994946	4.20061435	0.70000000	0.50000000	0.80000000	0.59172703	96.60000000	75.30000000	105.20000000	108.50000000	96.70000000
36	461.00000000	128.00000000	46.10000000	12.80000000	0.30000000	0.77888808	0.67453690	45.00000000	2.09705622	4.57195540	0.60000000	0.60000000	0.80000000	0.61803872	98.50000000	74.80000000	108.70000000	108.30000000	98.50000000
37	63.00000000	181.00000000	6.30000000	18.10000000	1.43000000	2.25694771	1.09478664	125.83000000	5.51126977	10.84872199	2.00000000	1.10000000	2.30000000	1.34934523	153.60000000	120.60000000	165.30000000	179.90000000	153.60000000
38	196.00000000	7.00000000	19.60000000	0.70000000	0.31000000	1.63030643	1.07639294	38.87000000	2.58994945	8.59261184	1.10000000	0.40000000	1.60000000	0.62316776	116.10000000	89.10000000	125.20000000	140.60000000	116.20000000
39	7.00000000	442.50000000	0.70000000	44.20000000	0.53000000	1.99704056	1.69077759	70.95000000	3.47279220	11.60560706	1.50000000	0.50000000	2.00000000	0.81758838	133.30000000	95.60000000	143.10000000	181.70000000	133.30000000
40	815.00000000	284.00000000	81.50000000	28.40000000	0.27000000	0.66409631	0.57897840	68.96000000	2.07279218	3.90981326	0.60000000	0.60000000	0.70000000	0.58086873	98.00000000	77.30000000	105.90000000	112.10000000	98.00000000
41	1226.00000000	12.00000000	122.60000000	1.20000000	1.35000000	1.78965702	1.42924604	103.86000000	4.73137082	10.14420120	1.70000000	0.90000000	1.80000000	1.31105812	141.00000000	101.40000000	155.40000000	171.30000000	141.10000000
42	809.50000000	915.50000000	81.00000000	91.60000000	0.35000000	0.73196554	0.65301013	19.32000000	2.27279218	4.35456529	0.70000000	0.70000000	0.70000000	0.66277269	92.10000000	68.80000000	99.70000000	114.70000000	92.20000000
43	494.00000000	242.50000000	49.40000000	24.20000000	0.40000000	0.78758268	0.75809574	135.00000000	2.33137082	4.85633380	0.70000000	0.70000000	0.80000000	0.71364965	125.00000000	93.60000000	136.70000000	146.80000000	125.00000000
44	141.00000000	432.50000000	14.10000000	43.20000000	0.36000000	0.77888808	0.67453690	45.00000000	2.21421351	4.57195540	0.70000000	0.60000000	0.80000000	0.67702750	88.90000000	68.30000000	97.00000000	101.00000000	88.90000000
45	6.00000000	129.00000000	0.60000000	12.90000000	0.51000000	1.35464058	0.94235992	12.55000000	3.27279216	7.27447642	1.30000000	0.50000000	1.40000000	0.80186406	105.40000000	78.60000000	113.60000000	133.10000000	105.40000000
46	274.50000000	670.00000000	27.50000000	67.00000000	0.38000000	0.75729127	0.71553254	166.98000000	2.27279217	4.62794240	0.70000000	0.60000000	0.80000000	0.69098830	93.80000000	71.60000000	102.20000000	109.10000000	93.90000000
47	328.50000000	951.00000000	32.90000000	95.10000000	2.04000000	3.55474510	1.15669136	94.39000000	7.72132030	15.77669506	3.10000000	0.90000000	3.60000000	1.60967154	129.80000000	93.80000000	139.40000000	174.70000000	129.80000000
48	943.50000000	393.50000000	94.40000000	39.40000000	0.22000000	0.60705495	0.51241145	23.99000000	1.78994948	3.52319458	0.60000000	0.50000000	0.60000000	0.52320790	98.10000000	77.60000000	106.30000000	109.40000000	98.10000000
49	1263.50000000	644.00000000	126.40000000	64.40000000	0.27000000	0.68747907	0.56102786	103.55000000	2.07279218	3.93236543	0.60000000	0.60000000	0.70000000	0.58086873	69.90000000	52.00000000	75.60000000	87.40000000	69.90000000

#6
liczenie
obiektów (w)	udział punktów	pole obrazu(mm²)
	114	100.00	12288.0000
nr.	x(pix.):	y(pix.):	x(mm):	y(mm):	powierzchnia:(mm²)	długość:(mm)	szerokość:(mm)	kąt:(°)	obwód:(mm)	obwód C.:(mm)	średnica Fereta H(mm)	średnica Fereta V(mm)	średn. Martina:(mm)	średn. sitowa:(mm)	średnia jaskrawość	R	G	B	Y
1	690.00000000	56.00000000	69.00000000	5.60000000	0.65000000	1.27417040	0.77822404	146.83000000	3.23847758	6.54225951	1.10000000	0.80000000	1.30000000	0.90622266	162.30000000	136.90000000	172.80000000	175.00000000	162.30000000
2	999.50000000	528.00000000	100.00000000	52.80000000	0.41000000	0.85116968	0.73334694	93.41000000	2.38994946	4.98478915	0.70000000	0.70000000	0.90000000	0.71809610	134.30000000	109.90000000	143.10000000	153.00000000	134.30000000
3	60.00000000	434.00000000	6.00000000	43.40000000	0.55000000	0.93992939	0.82430630	49.96000000	2.83847758	5.54846292	0.80000000	0.80000000	0.90000000	0.83301594	161.10000000	137.70000000	170.20000000	175.10000000	161.10000000
4	400.00000000	304.50000000	40.00000000	30.50000000	0.64000000	1.14389572	0.80539942	30.13000000	3.12132031	6.17014474	1.10000000	0.70000000	1.10000000	0.89917023	162.90000000	139.60000000	172.50000000	174.90000000	163.00000000
5	465.50000000	805.00000000	46.60000000	80.50000000	1.01000000	1.52715549	0.93742552	40.35000000	3.94558433	7.85394095	1.40000000	0.80000000	1.50000000	1.13400703	161.30000000	135.70000000	170.90000000	178.90000000	161.30000000
6	449.50000000	544.00000000	45.00000000	54.40000000	1.08000000	1.74399815	1.00251923	3.20000000	4.33137082	8.78638745	1.70000000	0.70000000	1.70000000	1.17264603	176.60000000	148.70000000	187.00000000	196.10000000	176.60000000
7	1107.00000000	255.00000000	110.70000000	25.50000000	0.79000000	1.22052259	0.89399633	151.49000000	3.74558436	6.68261827	1.10000000	1.00000000	1.20000000	1.00292534	155.00000000	123.10000000	167.70000000	172.40000000	154.90000000
8	1260.00000000	643.00000000	126.00000000	64.30000000	1.25000000	1.99277248	0.86600113	22.92000000	4.66274165	9.33343322	1.80000000	0.90000000	2.00000000	1.26156626	159.50000000	125.80000000	172.00000000	184.30000000	159.60000000
9	711.00000000	458.00000000	71.10000000	45.80000000	0.96000000	1.68535004	0.85420580	73.09000000	4.17989894	8.19336131	1.60000000	0.80000000	1.70000000	1.10558128	176.30000000	148.50000000	186.90000000	194.40000000	176.30000000
10	1018.00000000	284.00000000	101.80000000	28.40000000	0.49000000	0.98918123	0.73593025	61.35000000	2.73137083	5.44883658	0.90000000	0.70000000	1.00000000	0.78986542	159.50000000	131.80000000	170.50000000	175.10000000	159.50000000
11	1098.50000000	865.00000000	109.90000000	86.50000000	1.41000000	1.78579750	1.26572399	82.02000000	5.03847760	9.65637982	1.70000000	0.90000000	1.80000000	1.33749825	149.80000000	120.90000000	159.70000000	174.20000000	149.80000000
12	854.00000000	280.50000000	85.40000000	28.10000000	0.38000000	0.75729127	0.71553254	103.02000000	2.27279217	4.62794240	0.70000000	0.60000000	0.80000000	0.69098830	152.40000000	125.00000000	163.70000000	166.90000000	152.50000000
13	328.50000000	405.50000000	32.90000000	40.60000000	0.73000000	1.38437471	0.78719788	59.04000000	3.52132034	6.95179772	1.30000000	0.70000000	1.40000000	0.96078024	184.60000000	157.10000000	195.90000000	198.30000000	184.60000000
14	779.50000000	361.00000000	78.00000000	36.10000000	1.23000000	1.59788828	1.16091566	90.10000000	4.29705622	8.72148372	1.60000000	0.90000000	1.60000000	1.25143303	187.10000000	159.90000000	197.70000000	203.20000000	187.10000000
15	22.00000000	816.00000000	2.20000000	81.60000000	1.21000000	1.45467777	1.13777132	102.22000000	4.42842704	8.17487333	1.30000000	1.10000000	1.50000000	1.24121708	143.00000000	123.70000000	149.60000000	160.80000000	143.10000000
16	604.00000000	447.00000000	60.40000000	44.70000000	0.68000000	1.29874573	0.74719148	51.13000000	3.23847761	6.54482317	1.20000000	0.70000000	1.30000000	0.92705808	169.70000000	143.70000000	180.20000000	184.10000000	169.70000000
17	840.50000000	582.00000000	84.10000000	58.20000000	1.16000000	1.55949535	1.04819193	83.40000000	4.23847759	8.27122160	1.50000000	1.00000000	1.60000000	1.21267954	188.80000000	161.50000000	199.30000000	205.70000000	188.80000000
18	1077.50000000	701.00000000	107.80000000	70.10000000	0.51000000	0.95206556	0.78274245	28.16000000	2.73137083	5.46304775	0.90000000	0.70000000	1.00000000	0.80582391	153.20000000	124.30000000	164.20000000	173.10000000	153.30000000
19	1116.50000000	200.50000000	111.70000000	20.10000000	0.54000000	1.14763203	0.71586652	71.94000000	2.89705626	5.93319056	1.00000000	0.70000000	1.10000000	0.82918596	147.50000000	118.70000000	159.20000000	162.30000000	147.50000000
20	771.00000000	516.00000000	77.10000000	51.60000000	0.63000000	1.13779926	0.79223757	86.32000000	3.01421351	6.11208088	1.10000000	0.70000000	1.10000000	0.89562320	164.20000000	138.40000000	174.50000000	178.70000000	164.20000000
21	196.00000000	481.00000000	19.60000000	48.10000000	0.67000000	1.22837887	0.79837575	37.02000000	3.23847758	6.43909390	1.10000000	0.80000000	1.20000000	0.92016536	150.30000000	127.50000000	159.00000000	165.60000000	150.40000000
22	1070.00000000	760.00000000	107.00000000	76.00000000	0.62000000	1.19436083	0.75067148	9.58000000	3.37989895	6.19025275	1.10000000	0.80000000	1.20000000	0.88848664	148.40000000	117.40000000	159.30000000	174.10000000	148.40000000
23	16.50000000	723.50000000	1.70000000	72.40000000	1.13000000	1.31449785	1.20888872	6.47000000	4.28700572	7.93092454	1.30000000	1.20000000	1.30000000	1.19682684	163.00000000	137.50000000	172.00000000	183.20000000	163.00000000
24	811.50000000	851.00000000	81.20000000	85.10000000	1.08000000	1.72128677	0.88184643	47.31000000	4.20416298	8.39200823	1.60000000	0.80000000	1.70000000	1.16992842	173.40000000	142.80000000	185.00000000	194.30000000	173.40000000
25	271.50000000	698.50000000	27.20000000	69.90000000	0.45000000	0.82080908	0.76814914	85.60000000	2.61421354	4.99323024	0.80000000	0.70000000	0.80000000	0.75693976	151.60000000	129.50000000	159.10000000	171.20000000	151.70000000
26	831.00000000	340.00000000	83.10000000	34.00000000	1.24000000	1.79784794	1.10295897	160.41000000	4.88700573	9.24436745	1.90000000	1.00000000	1.80000000	1.25397402	166.90000000	139.40000000	177.50000000	184.30000000	166.90000000
27	652.50000000	361.50000000	65.20000000	36.10000000	0.97000000	1.37178640	0.96746674	170.32000000	3.75563488	7.40396983	1.30000000	0.90000000	1.40000000	1.10845666	178.80000000	152.00000000	189.30000000	194.80000000	178.80000000
28	267.00000000	778.00000000	26.70000000	77.80000000	0.55000000	0.95826120	0.92038546	142.44000000	2.83847761	5.90254231	0.80000000	0.80000000	1.00000000	0.83301594	143.20000000	123.00000000	150.90000000	156.70000000	143.20000000
29	488.00000000	838.50000000	48.80000000	83.90000000	0.60000000	0.97040062	0.88514194	2.32000000	3.54558436	5.83243607	0.90000000	0.90000000	1.00000000	0.87403874	136.50000000	114.20000000	144.30000000	154.50000000	136.50000000
30	760.50000000	670.00000000	76.00000000	67.00000000	0.57000000	1.03266783	0.82958708	18.28000000	3.26274164	5.86785285	0.90000000	0.80000000	1.00000000	0.85190759	135.30000000	113.10000000	143.70000000	150.70000000	135.30000000
31	1060.00000000	734.50000000	106.00000000	73.50000000	0.58000000	1.06288614	0.80730028	41.11000000	2.89705626	5.90282944	1.00000000	0.70000000	1.10000000	0.85934797	153.60000000	123.30000000	165.10000000	173.90000000	153.60000000
32	363.00000000	633.50000000	36.30000000	63.40000000	0.64000000	1.14509058	0.80534039	25.25000000	3.29705625	6.17402977	1.10000000	0.80000000	1.10000000	0.90270333	148.50000000	125.30000000	157.10000000	165.10000000	148.50000000
33	381.00000000	485.00000000	38.10000000	48.50000000	0.77000000	1.46446133	0.73781743	56.81000000	3.57989893	7.10828503	1.30000000	0.80000000	1.50000000	0.99014870	177.90000000	150.30000000	188.50000000	195.80000000	177.90000000
34	397.00000000	48.00000000	39.70000000	4.80000000	1.13000000	1.69384441	0.98488607	121.56000000	4.26274167	8.56350449	1.60000000	0.90000000	1.70000000	1.19948351	176.40000000	151.80000000	186.60000000	188.10000000	176.40000000
35	241.50000000	636.00000000	24.20000000	63.60000000	1.26000000	1.72980766	0.99637270	45.07000000	4.91126980	8.72023620	1.70000000	1.00000000	1.70000000	1.26660247	166.00000000	140.10000000	175.30000000	186.00000000	166.00000000
36	214.00000000	418.00000000	21.40000000	41.80000000	0.80000000	1.18823977	0.91569118	12.58000000	3.49705623	6.63745299	1.10000000	0.90000000	1.20000000	1.00925301	189.60000000	165.60000000	199.40000000	202.50000000	189.60000000
37	338.50000000	693.00000000	33.90000000	69.30000000	1.04000000	1.48963585	0.96884031	150.90000000	3.95563489	7.81042441	1.30000000	1.00000000	1.50000000	1.14795598	164.00000000	138.10000000	173.20000000	184.80000000	164.00000000
38	1137.50000000	219.50000000	113.80000000	22.00000000	0.47000000	0.98857565	0.68407159	148.60000000	2.97989895	5.29840554	0.90000000	0.70000000	1.00000000	0.77357778	147.60000000	118.00000000	159.60000000	163.40000000	147.60000000
39	1185.00000000	780.50000000	118.50000000	78.10000000	1.77000000	2.35196095	1.20588617	103.56000000	6.19411246	11.46919127	2.40000000	1.20000000	2.40000000	1.50121084	150.50000000	120.50000000	160.90000000	175.00000000	150.40000000
40	1110.50000000	102.00000000	111.10000000	10.20000000	0.57000000	1.18050060	0.76341076	140.43000000	2.97989894	6.17746888	0.80000000	0.80000000	1.20000000	0.85190759	133.10000000	105.80000000	144.40000000	146.30000000	133.10000000
41	665.50000000	460.00000000	66.50000000	46.00000000	0.44000000	0.80941992	0.76316605	57.14000000	2.53137083	4.94149306	0.80000000	0.70000000	0.80000000	0.74848206	163.70000000	138.00000000	173.30000000	181.60000000	163.70000000
42	88.50000000	564.50000000	8.80000000	56.50000000	1.28000000	1.80533047	1.07469664	86.87000000	5.06274165	9.19404426	1.70000000	1.00000000	1.80000000	1.27661530	157.00000000	135.10000000	164.90000000	173.20000000	157.00000000
43	739.00000000	379.50000000	73.90000000	38.00000000	0.75000000	1.11969461	0.99129448	12.38000000	3.27279217	6.63800312	1.00000000	0.90000000	1.10000000	0.97394223	195.20000000	173.60000000	203.60000000	207.90000000	195.10000000
44	665.00000000	574.00000000	66.50000000	57.40000000	1.35000000	2.00183334	1.12253160	76.86000000	5.40416300	10.01082247	2.00000000	1.00000000	2.00000000	1.30862798	171.90000000	146.50000000	181.50000000	189.30000000	171.90000000
45	981.00000000	97.00000000	98.10000000	9.70000000	1.18000000	1.34058304	1.25259647	31.55000000	4.23847760	8.14905859	1.20000000	1.20000000	1.30000000	1.22313387	174.60000000	142.20000000	186.70000000	197.70000000	174.60000000
46	941.50000000	172.00000000	94.20000000	17.20000000	0.72000000	1.38009405	0.89446726	150.60000000	3.47279218	7.22741224	1.10000000	0.90000000	1.40000000	0.95413116	159.70000000	129.60000000	171.60000000	177.60000000	159.70000000
47	978.00000000	122.00000000	97.80000000	12.20000000	0.52000000	1.01949339	0.74359164	110.70000000	2.73137083	5.57285703	0.90000000	0.70000000	1.00000000	0.81368579	144.80000000	116.90000000	156.50000000	157.90000000	144.80000000
48	1006.00000000	363.50000000	100.60000000	36.40000000	1.52000000	2.56638889	0.85067310	67.98000000	5.62842706	11.42301832	2.30000000	0.90000000	2.60000000	1.39115927	175.80000000	145.70000000	187.00000000	197.50000000	175.80000000
49	628.00000000	343.50000000	62.80000000	34.40000000	0.42000000	0.98437958	0.68467751	61.13000000	2.66274166	5.28585003	0.80000000	0.60000000	1.00000000	0.73127328	158.00000000	133.20000000	168.00000000	171.10000000	157.90000000
50	894.50000000	188.00000000	89.50000000	18.80000000	0.79000000	1.49721251	0.75222640	64.10000000	3.57989892	7.26196862	1.40000000	0.80000000	1.50000000	1.00292534	168.10000000	137.80000000	179.80000000	187.00000000	168.10000000
51	1265.50000000	262.00000000	126.60000000	26.20000000	1.15000000	1.65457058	0.94898882	11.11000000	4.29705623	8.33020721	1.50000000	0.90000000	1.70000000	1.21005185	139.30000000	108.70000000	150.90000000	159.10000000	139.20000000
52	767.50000000	420.00000000	76.80000000	42.00000000	0.58000000	1.24208422	0.70113811	63.69000000	3.09705623	6.22366748	1.10000000	0.70000000	1.20000000	0.85934797	158.10000000	132.80000000	167.90000000	174.20000000	158.10000000
53	923.50000000	515.00000000	92.40000000	51.50000000	0.28000000	0.86814976	0.57662168	157.46000000	2.07279218	4.58520312	0.60000000	0.60000000	0.90000000	0.59172703	141.10000000	116.90000000	150.20000000	157.80000000	141.10000000
54	379.00000000	533.50000000	37.90000000	53.40000000	0.62000000	1.14322996	0.76619506	90.00000000	3.01421351	6.05725185	1.10000000	0.70000000	1.10000000	0.88848664	154.00000000	131.20000000	162.70000000	168.50000000	154.00000000
55	545.50000000	493.50000000	54.60000000	49.40000000	1.15000000	2.01672554	0.86455545	43.40000000	4.71126982	9.41743938	1.90000000	0.70000000	2.00000000	1.21005185	175.90000000	147.00000000	186.80000000	195.30000000	175.90000000
56	932.50000000	887.50000000	93.20000000	88.80000000	1.35000000	2.31586361	0.95709419	37.36000000	5.65269115	10.73033127	2.10000000	0.90000000	2.30000000	1.30862798	141.80000000	115.30000000	151.00000000	164.20000000	141.80000000
57	373.00000000	781.00000000	37.30000000	78.10000000	0.71000000	1.10148582	0.93770390	34.27000000	3.13137082	6.41663914	0.90000000	0.90000000	1.10000000	0.95078919	140.80000000	118.60000000	149.00000000	156.60000000	140.80000000
58	977.00000000	267.50000000	97.70000000	26.80000000	0.53000000	0.97416973	0.79645028	28.59000000	2.73137082	5.57658555	0.90000000	0.70000000	1.00000000	0.82147243	165.00000000	133.70000000	177.30000000	183.00000000	164.90000000
59	1179.00000000	66.50000000	117.90000000	6.70000000	0.39000000	0.76781664	0.72401576	135.00000000	2.27279217	4.68773979	0.70000000	0.60000000	0.80000000	0.70014086	129.40000000	103.40000000	140.10000000	141.90000000	129.40000000
60	911.00000000	398.00000000	91.10000000	39.80000000	1.51000000	2.60163612	0.78081045	51.55000000	6.04264060	11.41118669	2.50000000	0.80000000	2.60000000	1.38657553	165.20000000	138.10000000	175.60000000	183.10000000	165.20000000
61	1270.00000000	676.00000000	127.00000000	67.60000000	0.51000000	1.55884228	0.88865585	111.49000000	2.98994948	7.83386208	0.90000000	0.80000000	1.60000000	0.80186406	132.40000000	105.50000000	141.90000000	154.30000000	132.40000000
62	522.00000000	207.50000000	52.20000000	20.80000000	1.15000000	1.33005915	1.18808107	178.21000000	4.03847758	7.91725920	1.30000000	1.10000000	1.30000000	1.20741844	191.70000000	167.90000000	201.10000000	205.90000000	191.70000000
63	192.50000000	119.50000000	19.20000000	12.00000000	1.87000000	2.88243408	0.95458288	165.52000000	6.87695519	12.82794180	2.80000000	1.00000000	2.90000000	1.54303530	159.90000000	135.20000000	169.80000000	173.40000000	159.90000000
64	337.00000000	723.00000000	33.70000000	72.30000000	0.82000000	1.19959326	0.98473587	72.43000000	3.66274165	6.87888104	1.10000000	1.00000000	1.20000000	1.02179079	149.60000000	124.70000000	158.70000000	167.80000000	149.60000000
65	677.50000000	525.50000000	67.80000000	52.60000000	0.94000000	1.50560732	0.92526703	105.50000000	3.75563487	7.74602628	1.30000000	0.90000000	1.50000000	1.09109073	177.50000000	150.60000000	188.00000000	195.00000000	177.60000000
66	1077.50000000	281.50000000	107.80000000	28.20000000	0.29000000	0.79091644	0.58788633	90.41000000	2.21421353	4.35514924	0.70000000	0.60000000	0.80000000	0.60765078	125.30000000	103.10000000	134.40000000	137.10000000	125.30000000
67	562.50000000	81.00000000	56.20000000	8.10000000	0.38000000	0.80226774	0.75189133	151.09000000	2.43847759	4.88381727	0.70000000	0.60000000	0.80000000	0.69098830	141.20000000	122.00000000	149.40000000	149.90000000	141.20000000
68	905.00000000	208.50000000	90.50000000	20.90000000	0.71000000	1.27905617	0.81862116	90.69000000	3.41421354	6.66966538	1.20000000	0.70000000	1.30000000	0.95078919	164.90000000	134.40000000	176.80000000	184.00000000	164.90000000
69	840.50000000	829.50000000	84.10000000	83.00000000	1.56000000	2.16659241	1.13861761	92.86000000	5.36984839	10.63628501	2.00000000	1.10000000	2.20000000	1.40708475	150.50000000	124.00000000	159.70000000	172.60000000	150.50000000
70	557.50000000	931.00000000	55.80000000	93.10000000	1.59000000	2.21606827	0.96595421	15.50000000	5.91126977	10.38622457	2.20000000	1.00000000	2.20000000	1.42283199	138.80000000	117.70000000	146.20000000	156.30000000	138.80000000
71	1049.00000000	12.00000000	104.90000000	1.20000000	0.59000000	1.07675066	0.90089474	62.53000000	3.01421353	6.22524395	0.90000000	0.90000000	1.10000000	0.86672448	133.80000000	107.10000000	145.00000000	146.80000000	133.90000000
72	367.50000000	12.00000000	36.80000000	1.20000000	0.41000000	0.96934433	0.62866015	90.32000000	2.53137083	5.07748784	0.90000000	0.60000000	1.00000000	0.72251520	162.50000000	139.20000000	172.70000000	170.60000000	162.40000000
73	675.00000000	781.50000000	67.50000000	78.20000000	1.52000000	2.08776016	0.98315725	147.28000000	5.53553385	9.96223817	2.10000000	1.00000000	2.10000000	1.38886929	167.10000000	139.50000000	177.00000000	188.40000000	167.10000000
74	978.00000000	297.00000000	97.80000000	29.70000000	2.24000000	2.58367043	1.48297825	166.19000000	6.79411249	13.01082850	2.40000000	1.40000000	2.60000000	1.68880330	182.60000000	152.10000000	194.10000000	203.40000000	182.60000000
75	1021.50000000	399.50000000	102.20000000	40.00000000	1.38000000	1.79692631	1.25266542	118.53000000	5.00416299	9.65701717	1.70000000	1.10000000	1.80000000	1.32314186	162.10000000	133.10000000	173.20000000	181.40000000	162.10000000
76	157.00000000	95.50000000	15.70000000	9.60000000	0.61000000	0.98415270	0.87573624	171.27000000	3.01421354	5.84797803	0.90000000	0.90000000	1.00000000	0.88129230	175.60000000	149.60000000	185.90000000	190.40000000	175.50000000
77	226.50000000	350.00000000	22.70000000	35.00000000	1.44000000	2.51865635	0.95120039	26.24000000	5.51126980	11.46448371	2.10000000	0.90000000	2.50000000	1.35405500	162.60000000	139.20000000	171.50000000	178.50000000	162.70000000
78	1270.00000000	353.50000000	127.00000000	35.40000000	0.83000000	1.57644625	0.85462055	151.40000000	3.81421353	7.80669877	1.30000000	0.90000000	1.60000000	1.02800235	136.30000000	107.80000000	146.80000000	157.50000000	136.40000000
79	1120.50000000	77.00000000	112.10000000	7.70000000	1.07000000	1.65311337	0.89362249	126.12000000	4.20416298	8.17970807	1.60000000	0.90000000	1.70000000	1.16447418	147.40000000	117.50000000	159.60000000	163.20000000	147.40000000
80	799.00000000	765.50000000	79.90000000	76.50000000	2.01000000	1.75771370	1.65995502	115.74000000	6.73553381	10.73911926	1.80000000	1.70000000	1.80000000	1.59776259	162.10000000	134.40000000	171.90000000	183.80000000	162.10000000
81	190.00000000	577.00000000	19.00000000	57.70000000	0.57000000	1.05613394	0.78859105	92.08000000	3.09705625	5.82588984	1.00000000	0.80000000	1.10000000	0.85190759	129.50000000	112.80000000	136.30000000	138.60000000	129.50000000
82	380.00000000	352.00000000	38.00000000	35.20000000	3.00000000	4.42508850	1.00999994	155.09000000	9.11543276	18.80664823	3.80000000	1.10000000	4.40000000	1.95278069	179.00000000	152.60000000	189.20000000	196.30000000	179.10000000
83	288.50000000	448.00000000	28.90000000	44.80000000	1.99000000	2.65751839	1.14897804	169.72000000	6.56984843	12.43280954	2.40000000	1.20000000	2.70000000	1.58977372	173.00000000	145.70000000	183.10000000	192.80000000	173.00000000
84	858.50000000	217.00000000	85.90000000	21.70000000	1.81000000	2.17853336	1.54597692	61.59000000	6.81837654	11.78542344	2.30000000	1.40000000	2.20000000	1.51598067	157.90000000	131.00000000	168.70000000	172.70000000	157.90000000
85	1203.50000000	212.00000000	120.40000000	21.20000000	0.39000000	0.81986122	0.71062260	152.78000000	2.33137082	4.81428237	0.70000000	0.70000000	0.80000000	0.70467256	116.20000000	92.10000000	126.70000000	125.80000000	116.30000000
86	930.00000000	58.50000000	93.00000000	5.90000000	0.36000000	0.78250847	0.72272902	139.51000000	2.41421353	4.73070782	0.70000000	0.70000000	0.80000000	0.67702750	137.30000000	111.30000000	149.10000000	144.60000000	137.30000000
87	656.00000000	804.50000000	65.60000000	80.50000000	0.90000000	1.39166336	0.91350107	161.07000000	3.92132031	7.31999964	1.30000000	0.90000000	1.40000000	1.06749679	150.90000000	124.70000000	160.30000000	171.80000000	150.90000000
88	540.50000000	224.00000000	54.10000000	22.40000000	1.20000000	2.10269833	0.82671995	29.66000000	4.66274166	9.64499145	1.80000000	0.90000000	2.10000000	1.23607745	182.70000000	154.30000000	193.80000000	199.60000000	182.70000000
89	697.00000000	11.00000000	69.70000000	1.10000000	0.28000000	0.80640945	0.54643698	85.30000000	2.13137082	4.28942085	0.70000000	0.50000000	0.80000000	0.59708213	142.20000000	121.30000000	152.20000000	146.10000000	142.20000000
90	520.50000000	867.50000000	52.10000000	86.80000000	0.42000000	0.88296003	0.71148453	72.28000000	2.92132030	5.02358969	0.80000000	0.80000000	0.90000000	0.72690743	129.20000000	110.40000000	136.10000000	142.90000000	129.20000000
91	650.50000000	823.00000000	65.00000000	82.30000000	1.21000000	1.55038462	1.12939787	87.32000000	4.62842708	8.47080861	1.30000000	1.30000000	1.60000000	1.24121708	163.20000000	135.40000000	172.90000000	186.60000000	163.20000000
92	1032.00000000	176.50000000	103.20000000	17.70000000	1.41000000	2.11940651	1.04533691	123.89000000	5.19411254	10.23075451	1.80000000	1.10000000	2.10000000	1.33987602	164.20000000	130.10000000	177.00000000	188.40000000	164.20000000
93	143.50000000	853.50000000	14.40000000	85.40000000	0.96000000	1.35507393	0.98915768	133.89000000	3.92132031	7.40954885	1.20000000	1.10000000	1.40000000	1.10269840	126.20000000	108.50000000	132.60000000	139.30000000	126.20000000
94	1052.50000000	73.50000000	105.20000000	7.40000000	1.53000000	2.01288071	1.20729790	52.43000000	5.45269111	10.27540004	2.00000000	1.10000000	2.00000000	1.39344548	129.00000000	101.60000000	139.80000000	145.40000000	129.00000000
95	459.00000000	397.00000000	45.90000000	39.70000000	0.40000000	0.79629407	0.73851576	2.70000000	2.35563486	4.82345573	0.70000000	0.60000000	0.80000000	0.70917531	136.30000000	119.50000000	143.40000000	143.60000000	136.30000000
96	1126.00000000	176.50000000	112.60000000	17.70000000	0.35000000	0.76705170	0.66945744	37.44000000	2.29705622	4.51813555	0.70000000	0.60000000	0.80000000	0.66755812	114.60000000	92.80000000	124.20000000	122.20000000	114.60000000
97	903.50000000	260.50000000	90.40000000	26.10000000	0.35000000	0.78461151	0.67595248	33.02000000	2.49705623	4.59484825	0.70000000	0.70000000	0.80000000	0.66755812	121.10000000	102.00000000	129.20000000	129.80000000	121.20000000
98	466.00000000	677.00000000	46.60000000	67.70000000	2.82000000	2.09681320	1.91402454	172.37000000	7.04264057	12.60696189	2.00000000	2.00000000	2.10000000	1.89487084	157.90000000	132.60000000	167.20000000	175.90000000	157.90000000
99	560.00000000	339.50000000	56.00000000	34.00000000	1.24000000	2.31035328	0.77383022	15.94000000	5.40416301	10.30042914	2.20000000	0.80000000	2.30000000	1.25397402	175.60000000	149.10000000	185.90000000	191.90000000	175.60000000
100	861.50000000	620.00000000	86.20000000	62.00000000	0.42000000	0.83579388	0.71258669	29.33000000	2.38994948	4.87208395	0.70000000	0.70000000	0.80000000	0.72690743	129.20000000	108.30000000	137.40000000	142.30000000	129.30000000
101	178.50000000	704.50000000	17.90000000	70.50000000	5.93000000	6.01035233	1.54253244	5.77000000	14.11959578	25.85382589	5.40000000	1.60000000	6.00000000	2.74778283	176.60000000	148.10000000	186.90000000	198.50000000	176.60000000
102	487.00000000	586.00000000	48.70000000	58.60000000	1.63000000	2.09022522	1.42056847	81.56000000	6.44264061	11.13003424	2.20000000	1.30000000	2.10000000	1.44061808	185.10000000	161.60000000	194.60000000	198.20000000	185.10000000
103	676.00000000	416.00000000	67.60000000	41.60000000	1.60000000	2.08846912	1.09797602	106.59000000	5.51126978	10.25382640	2.00000000	1.10000000	2.10000000	1.42729929	189.60000000	163.80000000	199.70000000	205.70000000	189.60000000
104	1184.00000000	456.00000000	118.40000000	45.60000000	0.33000000	0.80500498	0.62429552	144.01000000	2.21421353	4.50824231	0.60000000	0.60000000	0.80000000	0.64820448	103.20000000	86.00000000	110.00000000	114.00000000	103.30000000
105	376.50000000	229.00000000	37.60000000	22.90000000	1.86000000	2.23842220	1.55515966	81.51000000	6.92548331	12.01473956	2.30000000	1.30000000	2.20000000	1.53890401	168.70000000	145.30000000	178.00000000	182.00000000	168.70000000
106	140.00000000	95.00000000	14.00000000	9.50000000	1.09000000	1.64764328	1.03080912	163.69000000	4.82842708	8.52655001	1.60000000	1.00000000	1.60000000	1.17806244	172.30000000	145.00000000	183.20000000	188.20000000	172.30000000
107	377.00000000	747.50000000	37.70000000	74.80000000	0.84000000	1.30791540	0.90668421	76.58000000	3.72132031	7.01458112	1.30000000	0.90000000	1.30000000	1.03109409	125.70000000	109.50000000	132.40000000	134.20000000	125.70000000
108	943.50000000	255.50000000	94.40000000	25.60000000	0.29000000	0.77763124	0.66575170	37.77000000	2.17989893	4.54133475	0.60000000	0.60000000	0.80000000	0.60765078	108.30000000	90.80000000	116.20000000	113.30000000	108.30000000
109	627.00000000	521.00000000	62.70000000	52.10000000	0.76000000	1.31707001	0.84068766	172.31000000	3.43847759	6.86165391	1.10000000	0.90000000	1.30000000	0.98045696	133.40000000	116.20000000	141.10000000	139.20000000	133.40000000
110	656.50000000	68.50000000	65.70000000	6.90000000	0.23000000	0.60189786	0.57577205	84.96000000	1.84852812	3.70021434	0.60000000	0.50000000	0.60000000	0.54115164	122.00000000	103.40000000	131.00000000	125.10000000	122.10000000
111	553.00000000	356.00000000	55.30000000	35.60000000	1.00000000	1.45767288	0.97366982	13.84000000	3.81421351	7.71415049	1.30000000	0.90000000	1.50000000	1.12837917	190.80000000	164.50000000	201.50000000	205.40000000	190.90000000
112	717.00000000	399.00000000	71.70000000	39.90000000	0.57000000	1.07539978	0.78206668	173.39000000	2.89705621	5.87184242	0.80000000	0.80000000	1.10000000	0.85190759	179.20000000	152.80000000	190.00000000	192.90000000	179.20000000
113	5.00000000	778.00000000	0.50000000	77.80000000	0.88000000	9.89045334	3.21424942	0.00000000	5.48700571	43.88740240	1.80000000	0.90000000	9.90000000	1.05550206	110.10000000	96.90000000	115.50000000	116.20000000	110.00000000
114	1046.50000000	596.50000000	104.70000000	59.70000000	0.39000000	0.83395882	0.67294393	52.93000000	2.33137082	4.74759679	0.70000000	0.70000000	0.80000000	0.70467256	109.70000000	92.30000000	116.50000000	120.70000000	109.70000000

#7
liczenie
obiektów (w)	udział punktów	pole obrazu(mm²)
	112	100.00	12288.0000
nr.	x(pix.):	y(pix.):	x(mm):	y(mm):	powierzchnia:(mm²)	długość:(mm)	szerokość:(mm)	kąt:(°)	obwód:(mm)	obwód C.:(mm)	średnica Fereta H(mm)	średnica Fereta V(mm)	średn. Martina:(mm)	średn. sitowa:(mm)	średnia jaskrawość	R	G	B	Y
1	30.50000000	432.50000000	3.10000000	43.20000000	0.90000000	1.41477289	1.02040110	83.26000000	3.89705625	7.70056910	1.40000000	0.90000000	1.40000000	1.07047447	174.40000000	142.30000000	186.50000000	196.10000000	174.40000000
2	852.50000000	112.50000000	85.20000000	11.20000000	0.66000000	1.16099625	0.84333057	99.28000000	3.13137082	6.33638319	1.10000000	0.70000000	1.20000000	0.91669957	154.80000000	119.50000000	167.90000000	180.50000000	154.80000000
3	997.00000000	408.50000000	99.70000000	40.90000000	0.51000000	0.91768055	0.79457645	90.04000000	2.75563488	5.38616757	0.80000000	0.80000000	0.90000000	0.80186406	126.50000000	93.10000000	137.40000000	158.00000000	126.50000000
4	899.50000000	560.50000000	90.00000000	56.10000000	0.48000000	0.96310434	0.70509338	68.88000000	2.67279217	5.27218628	0.90000000	0.70000000	1.00000000	0.77768167	146.20000000	108.60000000	159.50000000	176.30000000	146.20000000
5	496.50000000	676.00000000	49.70000000	67.60000000	0.57000000	1.16811743	0.68791742	23.43000000	3.01421354	5.92889783	1.10000000	0.70000000	1.20000000	0.85190759	139.00000000	104.10000000	150.80000000	170.90000000	139.10000000
6	1263.50000000	441.00000000	126.40000000	44.10000000	0.40000000	0.77527132	0.77209830	121.39000000	2.41421351	4.86121015	0.70000000	0.70000000	0.80000000	0.71364965	102.50000000	75.50000000	109.90000000	134.90000000	102.50000000
7	901.50000000	68.00000000	90.20000000	6.80000000	0.99000000	1.79308796	0.82770844	74.72000000	4.17989893	8.51521635	1.60000000	0.90000000	1.80000000	1.12272310	162.20000000	124.90000000	175.70000000	190.30000000	162.20000000
8	689.50000000	627.50000000	69.00000000	62.80000000	0.63000000	1.08373137	0.87728367	144.98000000	3.09705626	6.17779210	1.10000000	0.80000000	1.10000000	0.89562320	116.80000000	86.50000000	126.50000000	146.60000000	116.80000000
9	818.00000000	829.50000000	81.80000000	83.00000000	1.52000000	1.76414757	1.17751102	76.86000000	4.83847760	9.33360686	1.70000000	1.10000000	1.80000000	1.38886929	146.70000000	108.40000000	159.00000000	184.10000000	146.70000000
10	1070.00000000	114.00000000	107.00000000	11.40000000	0.38000000	0.93758488	0.60136023	16.71000000	2.47279217	4.89260620	0.80000000	0.60000000	0.90000000	0.69098830	141.30000000	105.20000000	154.40000000	168.80000000	141.30000000
11	548.00000000	800.00000000	54.80000000	80.00000000	0.55000000	0.88698063	0.84602699	71.17000000	2.95563489	5.44516415	0.80000000	0.80000000	0.90000000	0.83301594	128.00000000	96.30000000	138.10000000	159.60000000	128.00000000
12	1203.50000000	469.00000000	120.40000000	46.90000000	0.69000000	1.15888596	0.84385519	30.63000000	3.37989893	6.33077727	1.10000000	0.80000000	1.20000000	0.93730213	112.60000000	80.20000000	122.00000000	149.00000000	112.60000000
13	937.50000000	448.50000000	93.80000000	44.90000000	1.10000000	1.50136099	1.02705736	5.22000000	4.09705623	8.01329573	1.50000000	0.90000000	1.50000000	1.18345405	155.30000000	117.40000000	168.70000000	186.10000000	155.40000000
14	698.50000000	55.50000000	69.90000000	5.60000000	0.27000000	0.78633900	0.52976499	175.53000000	1.98994946	4.17404166	0.70000000	0.50000000	0.80000000	0.58086873	137.70000000	108.80000000	149.20000000	153.90000000	137.70000000
15	641.50000000	770.00000000	64.20000000	77.00000000	0.81000000	1.12547722	0.99851847	0.60000000	3.60416301	6.67869078	1.10000000	1.00000000	1.10000000	1.01240201	139.10000000	103.90000000	150.50000000	172.40000000	139.10000000
16	744.50000000	801.50000000	74.50000000	80.20000000	0.60000000	0.96264277	0.89619179	108.76000000	2.97989893	5.84156687	0.90000000	0.80000000	1.00000000	0.87403874	126.70000000	93.90000000	136.30000000	162.70000000	126.60000000
17	978.00000000	26.50000000	97.80000000	2.70000000	0.52000000	0.99327412	0.77282224	64.13000000	2.73137083	5.56998886	0.90000000	0.70000000	1.00000000	0.81368579	142.10000000	109.10000000	154.10000000	166.80000000	142.10000000
18	463.00000000	391.50000000	46.30000000	39.20000000	0.43000000	0.87810659	0.71064110	32.34000000	2.44852812	5.00507164	0.70000000	0.70000000	0.90000000	0.73992770	167.50000000	133.90000000	180.30000000	189.50000000	167.50000000
19	599.50000000	664.50000000	60.00000000	66.50000000	0.97000000	1.63031826	0.93909531	8.72000000	3.98994946	8.21877053	1.50000000	0.70000000	1.60000000	1.10845666	152.70000000	112.00000000	166.60000000	187.80000000	152.70000000
20	635.50000000	898.00000000	63.60000000	89.80000000	1.32000000	1.66588154	1.06664610	161.98000000	4.43847759	8.68801242	1.50000000	1.10000000	1.70000000	1.29395131	146.70000000	109.00000000	158.60000000	184.00000000	146.70000000
21	680.00000000	142.50000000	68.00000000	14.20000000	1.14000000	1.56604147	1.04102573	175.85000000	4.15563488	8.27359485	1.50000000	0.90000000	1.60000000	1.20213430	158.70000000	123.20000000	171.60000000	185.70000000	158.70000000
22	522.50000000	81.00000000	52.20000000	8.10000000	0.37000000	0.80968180	0.72140126	25.07000000	2.38994948	4.81403792	0.70000000	0.70000000	0.80000000	0.68171287	123.20000000	92.60000000	134.30000000	146.90000000	123.20000000
23	927.50000000	650.00000000	92.80000000	65.00000000	0.62000000	1.09026661	0.92303247	0.58000000	3.20416304	6.33588049	1.00000000	0.70000000	1.10000000	0.88489678	124.90000000	90.60000000	135.30000000	162.00000000	125.00000000
24	368.00000000	180.50000000	36.80000000	18.10000000	0.85000000	1.42334738	0.91131468	4.94000000	3.75563488	7.42302407	1.50000000	0.70000000	1.40000000	1.03724993	179.50000000	145.60000000	192.30000000	203.10000000	179.60000000
25	783.50000000	603.50000000	78.40000000	60.40000000	0.92000000	1.41458530	0.88425703	76.31000000	3.92132028	7.31843839	1.20000000	1.10000000	1.40000000	1.07935823	138.20000000	103.60000000	149.60000000	170.20000000	138.20000000
26	231.00000000	838.00000000	23.10000000	83.80000000	0.77000000	1.28632727	0.86526613	108.78000000	3.66274165	6.82430367	1.10000000	0.90000000	1.30000000	0.99014870	120.70000000	89.60000000	130.10000000	153.60000000	120.70000000
27	864.50000000	271.00000000	86.50000000	27.10000000	0.76000000	1.31736441	0.84353142	119.01000000	3.57989894	6.87050578	1.30000000	0.90000000	1.30000000	0.98369815	135.90000000	105.40000000	146.60000000	161.60000000	136.00000000
28	993.50000000	701.50000000	99.40000000	70.20000000	0.59000000	0.97541027	0.83764782	166.12000000	2.87279218	5.70411424	0.90000000	0.80000000	1.00000000	0.86304411	115.80000000	82.60000000	125.20000000	154.90000000	115.90000000
29	766.00000000	483.00000000	76.60000000	48.30000000	0.62000000	1.11964455	0.80336075	144.33000000	3.15563488	6.08222556	0.90000000	0.90000000	1.10000000	0.88489678	121.90000000	89.30000000	132.20000000	154.90000000	121.90000000
30	1036.50000000	114.00000000	103.70000000	11.40000000	0.54000000	0.91914721	0.83637447	40.12000000	2.89705623	5.51819963	0.80000000	0.80000000	0.90000000	0.82918596	147.30000000	111.20000000	160.20000000	175.10000000	147.30000000
31	1064.50000000	531.00000000	106.50000000	53.10000000	1.33000000	1.86085625	1.06934719	32.65000000	4.94558434	9.37420631	1.90000000	1.00000000	1.90000000	1.30131034	131.50000000	96.10000000	142.20000000	169.30000000	131.50000000
32	472.50000000	467.50000000	47.20000000	46.80000000	0.98000000	1.38701601	1.01048336	14.81000000	3.89705625	7.57848321	1.40000000	0.90000000	1.40000000	1.11703839	165.80000000	128.40000000	179.40000000	193.80000000	165.80000000
33	730.00000000	211.00000000	73.00000000	21.10000000	0.87000000	1.41434145	0.99414120	154.45000000	3.69705625	7.62416009	1.30000000	0.90000000	1.40000000	1.05248202	160.80000000	127.20000000	172.70000000	187.50000000	160.80000000
34	271.00000000	216.00000000	27.10000000	21.60000000	0.64000000	1.15385475	0.83505373	76.26000000	3.07279217	6.28853933	1.10000000	0.70000000	1.20000000	0.89917023	139.20000000	109.20000000	150.80000000	158.40000000	139.20000000
35	34.00000000	268.50000000	3.40000000	26.90000000	0.57000000	1.06199360	0.79100041	107.21000000	2.84852812	5.85252088	0.90000000	0.70000000	1.10000000	0.85190759	152.00000000	120.60000000	163.90000000	172.90000000	152.00000000
36	1087.00000000	70.50000000	108.70000000	7.10000000	0.47000000	0.88516035	0.79951835	146.21000000	2.58994948	5.29599415	0.80000000	0.70000000	0.90000000	0.76945201	128.20000000	96.70000000	139.70000000	152.40000000	128.30000000
37	291.00000000	476.50000000	29.10000000	47.70000000	0.40000000	0.82323761	0.70977669	49.07000000	2.33137082	4.82270404	0.70000000	0.70000000	0.80000000	0.71364965	144.90000000	112.60000000	156.90000000	168.40000000	145.00000000
38	398.50000000	365.00000000	39.90000000	36.50000000	0.41000000	0.85116968	0.73334694	176.59000000	2.38994946	4.98478915	0.70000000	0.70000000	0.90000000	0.71809610	124.80000000	96.10000000	135.30000000	145.90000000	124.80000000
39	362.50000000	628.50000000	36.20000000	62.90000000	1.71000000	2.59512272	0.91937819	81.15000000	5.97989894	11.67814501	2.50000000	0.90000000	2.60000000	1.47554723	154.60000000	117.00000000	167.10000000	188.70000000	154.60000000
40	977.00000000	795.00000000	97.70000000	79.50000000	1.49000000	1.57951498	1.31402731	83.61000000	4.91126977	9.10947278	1.50000000	1.30000000	1.60000000	1.37736231	125.00000000	89.20000000	135.40000000	166.20000000	125.10000000
41	699.00000000	278.00000000	69.90000000	27.80000000	0.71000000	1.19535322	0.93176384	85.93000000	3.27279217	6.70821400	1.20000000	0.70000000	1.20000000	0.94743542	168.00000000	131.40000000	181.60000000	194.00000000	168.00000000
42	809.00000000	108.50000000	80.90000000	10.90000000	1.08000000	1.93342361	0.83037958	19.85000000	4.60416300	9.03208719	1.70000000	0.90000000	1.90000000	1.16992842	159.90000000	121.10000000	174.10000000	188.70000000	159.90000000
43	996.50000000	236.50000000	99.70000000	23.70000000	0.98000000	1.27456837	1.05284119	47.63000000	3.72132028	7.32837251	1.20000000	1.00000000	1.30000000	1.11418515	176.20000000	145.40000000	187.10000000	201.00000000	176.20000000
44	83.50000000	663.00000000	8.30000000	66.30000000	1.63000000	2.34742088	1.02171354	81.16000000	5.63847759	10.99827696	2.30000000	0.90000000	2.30000000	1.43840685	135.90000000	103.10000000	146.60000000	167.10000000	135.90000000
45	1097.50000000	143.50000000	109.80000000	14.40000000	1.26000000	1.83754978	0.92716360	123.06000000	4.56984839	8.92268990	1.70000000	0.90000000	1.80000000	1.26408688	150.20000000	113.60000000	163.20000000	179.10000000	150.20000000
46	1213.50000000	616.50000000	121.40000000	61.70000000	1.09000000	1.34142523	1.12352009	39.50000000	4.42842708	7.75899076	1.30000000	1.10000000	1.30000000	1.17806244	111.50000000	79.20000000	120.60000000	150.10000000	111.60000000
47	678.00000000	573.00000000	67.80000000	57.30000000	1.58000000	1.70590801	1.23054762	68.16000000	4.88700569	9.28568541	1.70000000	1.20000000	1.70000000	1.41610462	189.40000000	156.10000000	201.90000000	212.70000000	189.40000000
48	662.50000000	911.50000000	66.20000000	91.20000000	0.97000000	1.20227947	1.15114908	124.16000000	3.80416301	7.39438635	1.10000000	1.10000000	1.20000000	1.10845666	106.90000000	78.20000000	114.80000000	141.30000000	106.90000000
49	141.00000000	61.00000000	14.10000000	6.10000000	1.46000000	1.53693991	1.30742941	154.19000000	4.74558433	8.95040052	1.40000000	1.30000000	1.50000000	1.36342574	158.50000000	123.40000000	171.30000000	184.60000000	158.50000000
50	744.00000000	112.00000000	74.40000000	11.20000000	0.76000000	1.47634335	0.75198793	28.82000000	3.57989895	7.18669682	1.30000000	0.80000000	1.50000000	0.98369815	166.50000000	129.30000000	180.10000000	194.30000000	166.50000000
51	569.00000000	269.00000000	56.90000000	26.90000000	0.53000000	0.96913834	0.80179949	29.85000000	2.73137082	5.57599102	0.90000000	0.70000000	1.00000000	0.82147243	160.70000000	125.50000000	173.80000000	186.10000000	160.70000000
52	165.00000000	219.00000000	16.50000000	21.90000000	1.39000000	2.00196934	0.94371338	30.41000000	4.96984841	9.55522268	1.90000000	1.00000000	2.00000000	1.32794457	175.80000000	139.30000000	189.40000000	201.90000000	175.80000000
53	376.50000000	224.00000000	37.60000000	22.40000000	0.45000000	1.05747375	0.75641966	168.64000000	2.61421355	5.73782571	0.80000000	0.70000000	1.10000000	0.75693976	166.40000000	132.00000000	179.30000000	190.40000000	166.40000000
54	861.50000000	851.50000000	86.20000000	85.20000000	1.48000000	1.73682556	1.16815472	121.48000000	5.19411246	9.21390778	1.70000000	1.20000000	1.70000000	1.37273250	117.20000000	84.70000000	126.20000000	155.90000000	117.20000000
55	766.50000000	923.00000000	76.70000000	92.30000000	1.67000000	1.93759670	1.18291950	66.84000000	5.16984843	9.94726874	1.80000000	1.20000000	1.90000000	1.45600269	114.20000000	84.50000000	122.40000000	149.30000000	114.20000000
56	692.50000000	432.50000000	69.20000000	43.20000000	1.85000000	2.54787426	1.01028891	111.54000000	6.47695519	11.70654297	2.60000000	1.00000000	2.50000000	1.53476160	166.90000000	130.00000000	179.90000000	197.20000000	167.00000000
57	471.50000000	934.00000000	47.20000000	93.40000000	1.29000000	1.60767365	1.09707575	21.64000000	4.52132028	8.57309533	1.50000000	1.10000000	1.60000000	1.27910626	124.10000000	89.90000000	133.90000000	162.70000000	124.00000000
58	681.00000000	338.50000000	68.10000000	33.90000000	0.43000000	0.80755606	0.76735425	57.21000000	2.47279217	4.94853266	0.80000000	0.70000000	0.80000000	0.73561322	162.40000000	128.30000000	175.40000000	184.30000000	162.30000000
59	1268.50000000	542.00000000	126.90000000	54.20000000	1.42000000	2.08244591	0.93641672	18.57000000	4.94558436	9.82892634	2.00000000	1.00000000	2.10000000	1.34461896	109.50000000	77.90000000	118.30000000	147.00000000	109.50000000
60	353.50000000	766.50000000	35.40000000	76.70000000	1.14000000	1.55472803	1.00042915	154.34000000	4.34558434	8.12198508	1.50000000	1.00000000	1.60000000	1.20477927	143.00000000	105.50000000	155.40000000	177.60000000	143.00000000
61	663.50000000	667.00000000	66.40000000	66.70000000	1.54000000	2.31095963	0.87425880	29.69000000	5.75979793	10.52244830	2.20000000	0.90000000	2.30000000	1.40028172	177.20000000	137.40000000	192.40000000	204.00000000	177.30000000
62	479.50000000	901.00000000	48.00000000	90.10000000	0.76000000	1.13360882	0.95735245	83.04000000	3.23847758	6.58062274	1.00000000	0.90000000	1.10000000	0.98045696	117.20000000	87.70000000	125.50000000	152.00000000	117.20000000
63	1113.00000000	678.00000000	111.30000000	67.80000000	1.31000000	1.88077774	1.05826826	62.07000000	5.13553381	9.41497436	1.80000000	1.10000000	1.90000000	1.28902196	99.90000000	71.10000000	108.00000000	133.70000000	99.90000000
64	53.50000000	719.00000000	5.40000000	71.90000000	1.25000000	1.79075336	1.12381411	101.06000000	4.94558434	9.27664515	1.80000000	1.00000000	1.80000000	1.26156626	146.50000000	111.10000000	158.10000000	180.00000000	146.60000000
65	679.00000000	363.00000000	67.90000000	36.30000000	0.69000000	1.00196123	0.92514744	59.06000000	3.15563489	6.05659538	1.00000000	0.90000000	1.00000000	0.93389993	172.90000000	139.00000000	185.70000000	195.80000000	172.90000000
66	394.50000000	94.00000000	39.50000000	9.40000000	1.40000000	1.78899670	1.20561771	5.74000000	5.36984841	9.49733108	1.70000000	1.10000000	1.80000000	1.33272997	158.90000000	124.30000000	171.50000000	184.70000000	158.90000000
67	1115.00000000	819.00000000	111.50000000	81.90000000	0.67000000	1.19649982	0.85246611	16.33000000	3.48700569	6.48246561	1.10000000	0.80000000	1.20000000	0.92016536	88.10000000	63.70000000	94.20000000	121.60000000	88.20000000
68	451.00000000	346.50000000	45.10000000	34.60000000	0.42000000	0.82844439	0.76497955	67.90000000	2.38994946	5.00787443	0.70000000	0.70000000	0.80000000	0.72690743	171.10000000	137.20000000	183.90000000	194.10000000	171.10000000
69	302.00000000	206.00000000	30.20000000	20.60000000	0.49000000	0.91291351	0.76962981	77.18000000	2.61421351	5.29545345	0.80000000	0.70000000	0.90000000	0.78986542	145.60000000	113.30000000	158.10000000	165.90000000	145.60000000
70	778.50000000	46.00000000	77.90000000	4.60000000	0.35000000	0.78422256	0.66364512	97.59000000	2.33137083	4.55650055	0.70000000	0.60000000	0.80000000	0.66755812	162.50000000	129.20000000	175.40000000	184.10000000	162.60000000
71	111.50000000	760.50000000	11.20000000	76.00000000	1.85000000	2.35943298	1.13336639	139.04000000	5.93553381	11.31366187	2.10000000	1.10000000	2.40000000	1.53268619	140.40000000	104.80000000	151.50000000	176.80000000	140.40000000
72	510.00000000	233.50000000	51.00000000	23.40000000	0.35000000	0.74743342	0.70252571	24.37000000	2.27279217	4.55627342	0.70000000	0.60000000	0.70000000	0.66277269	159.70000000	124.60000000	173.10000000	182.90000000	159.70000000
73	788.00000000	362.50000000	78.80000000	36.20000000	2.09000000	3.04141884	0.93709965	66.11000000	6.65269115	13.38953466	2.80000000	1.00000000	3.00000000	1.62932638	184.10000000	146.70000000	197.40000000	213.60000000	184.10000000
74	571.00000000	170.00000000	57.10000000	17.00000000	1.49000000	2.18482380	1.05275040	54.16000000	5.85269109	10.48449041	1.90000000	1.10000000	2.20000000	1.37504935	158.20000000	123.20000000	170.80000000	185.60000000	158.30000000
75	414.00000000	494.50000000	41.40000000	49.50000000	0.33000000	0.77699161	0.60438018	8.47000000	2.18994948	4.35666424	0.70000000	0.60000000	0.80000000	0.64327510	104.30000000	80.10000000	113.00000000	123.00000000	104.30000000
76	314.00000000	139.50000000	31.40000000	14.00000000	1.42000000	2.17835255	1.11933270	28.89000000	5.53553380	10.62886093	1.90000000	1.10000000	2.20000000	1.34224959	140.30000000	107.80000000	152.50000000	163.10000000	140.40000000
77	818.00000000	389.00000000	81.80000000	38.90000000	1.22000000	1.87012959	0.97279968	112.05000000	4.66274165	9.15519450	1.80000000	1.00000000	1.90000000	1.24633553	150.30000000	116.20000000	161.80000000	180.40000000	150.30000000
78	339.00000000	783.00000000	33.90000000	78.30000000	1.87000000	2.45420704	1.02765732	51.47000000	6.01837658	11.40267335	2.40000000	1.00000000	2.50000000	1.54097104	155.40000000	116.30000000	168.30000000	192.10000000	155.40000000
79	604.00000000	195.50000000	60.40000000	19.60000000	1.61000000	2.31029434	1.37505999	82.33000000	6.45269116	11.76504716	2.40000000	1.10000000	2.30000000	1.42952771	145.10000000	113.00000000	156.50000000	170.60000000	145.10000000
80	635.50000000	197.00000000	63.60000000	19.70000000	0.64000000	0.96727915	0.93888245	153.29000000	2.95563487	5.98871552	0.90000000	0.80000000	1.00000000	0.89917023	140.70000000	107.10000000	153.20000000	163.80000000	140.70000000
81	563.00000000	294.00000000	56.30000000	29.40000000	0.39000000	0.76781664	0.72401576	45.00000000	2.27279217	4.68773979	0.70000000	0.60000000	0.80000000	0.70014086	126.70000000	99.50000000	136.90000000	146.30000000	126.80000000
82	762.50000000	557.00000000	76.20000000	55.70000000	0.39000000	0.83395882	0.67294393	52.93000000	2.33137082	4.74759679	0.70000000	0.70000000	0.80000000	0.70467256	98.50000000	73.40000000	106.80000000	121.10000000	98.50000000
83	609.00000000	109.00000000	60.90000000	10.90000000	1.52000000	2.18333073	1.13280849	179.26000000	6.01837655	10.68101802	2.10000000	1.20000000	2.20000000	1.38886929	148.10000000	114.20000000	160.10000000	174.60000000	148.10000000
84	976.00000000	292.00000000	97.60000000	29.20000000	2.06000000	3.33713570	0.94021034	66.08000000	7.01837654	14.51517606	2.90000000	1.10000000	3.30000000	1.61756214	169.70000000	130.10000000	184.10000000	199.30000000	169.70000000
85	898.50000000	499.00000000	89.90000000	49.90000000	1.72000000	1.91019669	1.37868166	45.76000000	6.19411248	10.39989107	1.90000000	1.30000000	1.90000000	1.47985540	128.00000000	93.60000000	138.80000000	162.90000000	128.00000000
86	325.00000000	462.50000000	32.50000000	46.20000000	0.39000000	0.76781664	0.72401576	45.00000000	2.27279217	4.68773979	0.70000000	0.60000000	0.80000000	0.70014086	104.50000000	79.00000000	113.30000000	126.00000000	104.50000000
87	1218.00000000	523.00000000	121.80000000	52.30000000	0.37000000	0.80577154	0.68868456	33.93000000	2.49705623	4.70217991	0.80000000	0.60000000	0.80000000	0.68636625	91.50000000	65.60000000	98.60000000	122.50000000	91.50000000
88	907.00000000	271.00000000	90.70000000	27.10000000	0.37000000	0.82699537	0.67126598	51.78000000	2.27279216	4.71964834	0.70000000	0.60000000	0.80000000	0.68171287	98.20000000	73.60000000	106.30000000	121.20000000	98.20000000
89	907.00000000	287.50000000	90.70000000	28.80000000	0.36000000	0.79672785	0.70825000	20.35000000	2.27279218	4.73211358	0.80000000	0.60000000	0.80000000	0.67230948	88.10000000	66.20000000	95.80000000	106.30000000	88.10000000
90	1234.00000000	779.00000000	123.40000000	77.90000000	0.85000000	1.28320227	0.95868683	39.97000000	3.74558436	7.08004409	1.20000000	0.90000000	1.30000000	1.04031419	81.40000000	58.10000000	87.00000000	113.50000000	81.40000000
91	666.50000000	123.50000000	66.70000000	12.40000000	0.33000000	0.73621497	0.71408582	13.30000000	2.21421351	4.55651950	0.70000000	0.60000000	0.70000000	0.64820448	116.00000000	89.00000000	126.50000000	133.20000000	116.00000000
92	454.00000000	216.50000000	45.40000000	21.70000000	0.25000000	0.66995831	0.56413527	135.00000000	1.93137082	3.88414950	0.60000000	0.60000000	0.70000000	0.56418958	158.40000000	123.90000000	171.60000000	180.80000000	158.40000000
93	424.00000000	288.00000000	42.40000000	28.80000000	1.26000000	2.00108624	1.15444164	20.15000000	5.16984842	10.09261116	1.80000000	1.10000000	2.00000000	1.26408688	120.80000000	94.80000000	130.10000000	141.40000000	120.80000000
94	456.00000000	304.50000000	45.60000000	30.50000000	0.43000000	1.17024155	0.69502015	85.58000000	3.65269113	5.95537623	1.20000000	0.70000000	1.20000000	0.73561322	100.90000000	78.30000000	109.50000000	116.00000000	100.90000000
95	501.00000000	257.50000000	50.10000000	25.80000000	0.29000000	0.73564110	0.56720195	100.75000000	1.98994948	4.11012354	0.70000000	0.50000000	0.70000000	0.60238963	111.00000000	87.00000000	120.10000000	127.20000000	111.00000000
96	185.50000000	660.00000000	18.60000000	66.00000000	0.63000000	1.08133917	0.88206015	164.32000000	3.17989895	6.18409675	0.90000000	0.90000000	1.10000000	0.89562320	143.20000000	109.40000000	154.80000000	171.70000000	143.20000000
97	975.50000000	891.50000000	97.60000000	89.20000000	2.39000000	2.34374218	1.36625547	138.89000000	6.78406193	11.85846765	2.30000000	1.30000000	2.30000000	1.74260618	93.40000000	68.10000000	100.50000000	123.00000000	93.40000000
98	1270.00000000	67.00000000	127.00000000	6.70000000	1.54000000	1.91716518	1.37536039	27.13000000	5.43847759	10.41391740	1.80000000	1.20000000	1.90000000	1.39800669	101.70000000	78.50000000	109.70000000	121.50000000	101.80000000
99	624.00000000	188.50000000	62.40000000	18.90000000	0.33000000	0.81912146	0.67656803	58.44000000	2.21421353	4.70952414	0.60000000	0.60000000	0.80000000	0.64820448	129.40000000	97.00000000	140.70000000	155.80000000	129.40000000
100	734.00000000	511.50000000	73.40000000	51.20000000	2.19000000	1.89667511	1.66470814	86.79000000	5.91126978	11.20028512	1.80000000	1.70000000	1.90000000	1.66984868	164.20000000	125.60000000	177.40000000	198.00000000	164.20000000
101	309.00000000	432.50000000	30.90000000	43.20000000	4.91000000	4.79028664	1.45270081	65.02000000	12.79827551	21.04137807	5.20000000	1.60000000	4.80000000	2.49904781	181.40000000	141.10000000	195.70000000	212.90000000	181.40000000
102	1162.00000000	923.00000000	116.20000000	92.30000000	1.98000000	1.74025097	1.61010532	126.10000000	6.26690466	10.52942571	1.70000000	1.70000000	1.70000000	1.58576420	79.50000000	55.70000000	85.80000000	109.50000000	79.50000000
103	483.00000000	222.50000000	48.30000000	22.20000000	1.81000000	2.81013165	1.16375017	93.71000000	6.55563488	13.02604718	2.90000000	0.70000000	2.80000000	1.51598067	164.10000000	130.10000000	176.30000000	190.00000000	164.00000000
104	888.00000000	806.00000000	88.80000000	80.60000000	2.70000000	2.86514702	1.39060984	133.20000000	8.55979789	13.77421875	2.10000000	2.00000000	2.90000000	1.85411617	114.90000000	88.80000000	122.90000000	142.50000000	114.90000000
105	861.50000000	327.50000000	86.20000000	32.80000000	0.33000000	0.77018647	0.71767354	73.95000000	2.74558434	4.67570586	0.70000000	0.70000000	0.80000000	0.64820448	84.40000000	63.00000000	92.00000000	101.80000000	84.40000000
106	1031.00000000	256.00000000	103.10000000	25.60000000	1.95000000	2.23725471	1.48148909	51.08000000	7.15979788	11.80372637	2.10000000	1.50000000	2.20000000	1.57569575	154.00000000	115.50000000	166.90000000	188.40000000	154.00000000
107	535.50000000	467.50000000	53.60000000	46.80000000	0.30000000	0.70988626	0.61676702	8.88000000	2.13137083	4.17293928	0.60000000	0.60000000	0.70000000	0.61803872	102.40000000	80.70000000	110.90000000	116.00000000	102.50000000
108	850.50000000	65.50000000	85.10000000	6.60000000	2.22000000	2.45728397	1.54645519	42.49000000	7.50121924	12.74139214	2.30000000	1.50000000	2.50000000	1.67935273	150.00000000	113.50000000	162.60000000	180.90000000	150.00000000
109	970.50000000	308.00000000	97.10000000	30.80000000	1.17000000	1.85997868	1.25070648	148.81000000	7.02842706	9.86645779	1.60000000	1.50000000	1.90000000	1.22052868	82.80000000	61.50000000	90.00000000	102.00000000	82.80000000
110	221.00000000	439.00000000	22.10000000	43.90000000	0.27000000	0.78633900	0.52976499	94.47000000	1.98994946	4.17404166	0.70000000	0.50000000	0.80000000	0.58086873	91.30000000	71.30000000	99.20000000	103.60000000	91.30000000
111	572.00000000	227.50000000	57.20000000	22.80000000	0.56000000	1.38256435	0.71455731	48.84000000	3.66274165	6.75650979	1.30000000	0.70000000	1.40000000	0.84440165	112.80000000	89.90000000	121.40000000	127.90000000	112.70000000
112	595.50000000	621.50000000	59.60000000	62.20000000	0.28000000	0.72215185	0.60882955	91.90000000	2.09705622	4.18898272	0.60000000	0.60000000	0.70000000	0.59708213	90.60000000	70.70000000	97.60000000	107.20000000	90.70000000

#8
liczenie
obiektów (w)	udział punktów	pole obrazu(mm²)
	15	100.00	12288.0000
nr.	x(pix.):	y(pix.):	x(mm):	y(mm):	powierzchnia:(mm²)	długość:(mm)	szerokość:(mm)	kąt:(°)	obwód:(mm)	obwód C.:(mm)	średnica Fereta H(mm)	średnica Fereta V(mm)	średn. Martina:(mm)	średn. sitowa:(mm)	średnia jaskrawość	R	G	B	Y
1	523.50000000	933.50000000	52.40000000	93.40000000	0.86000000	1.25191278	0.94994068	139.98000000	3.80416301	6.94989142	1.20000000	1.00000000	1.30000000	1.04336945	122.50000000	97.70000000	129.80000000	150.40000000	122.50000000
2	1081.50000000	467.50000000	108.20000000	46.80000000	0.53000000	0.94347172	0.91871576	13.13000000	2.77989895	5.85049299	0.80000000	0.70000000	0.90000000	0.82147243	151.40000000	120.40000000	162.90000000	173.30000000	151.40000000
3	914.50000000	750.00000000	91.50000000	75.00000000	0.98000000	1.61710453	0.88213491	15.01000000	4.12132031	8.02228465	1.50000000	0.90000000	1.60000000	1.11418515	139.20000000	109.80000000	149.00000000	166.20000000	139.20000000
4	276.50000000	78.50000000	27.70000000	7.90000000	0.54000000	0.93656521	0.90471954	102.24000000	2.97989895	5.78499924	0.90000000	0.70000000	0.90000000	0.82918596	144.50000000	117.80000000	156.70000000	152.10000000	144.50000000
5	619.00000000	151.50000000	61.90000000	15.20000000	1.52000000	1.49378090	1.38097057	76.22000000	4.60416303	9.03477530	1.40000000	1.30000000	1.50000000	1.38886929	155.30000000	126.30000000	166.70000000	172.40000000	155.30000000
6	1046.50000000	298.00000000	104.70000000	29.80000000	1.63000000	1.89657326	1.17216358	136.89000000	5.65269113	9.77550256	1.50000000	1.50000000	1.90000000	1.43840685	133.30000000	103.90000000	144.50000000	152.90000000	133.30000000
7	674.00000000	358.50000000	67.40000000	35.90000000	1.56000000	2.09463902	1.00287848	128.68000000	5.22842708	10.03578678	2.10000000	1.10000000	2.10000000	1.40934513	155.60000000	128.10000000	165.30000000	177.50000000	155.60000000
8	281.00000000	648.50000000	28.10000000	64.90000000	1.87000000	2.48891487	1.17900820	124.28000000	6.13553383	11.89355667	2.20000000	1.30000000	2.50000000	1.54097104	141.00000000	116.00000000	149.00000000	165.30000000	141.00000000
9	274.00000000	178.00000000	27.40000000	17.80000000	1.10000000	1.33342495	1.15054102	82.50000000	3.97989892	7.81418819	1.30000000	1.10000000	1.30000000	1.18345405	170.70000000	145.80000000	180.00000000	188.70000000	170.80000000
10	509.50000000	890.00000000	51.00000000	89.00000000	1.40000000	2.12458439	0.98917637	65.57000000	5.33553385	10.11013352	1.90000000	1.00000000	2.10000000	1.33272997	103.50000000	87.50000000	108.30000000	120.50000000	103.50000000
11	1212.00000000	953.50000000	121.20000000	95.40000000	0.29000000	2.38119202	1.00562077	20.62000000	2.36568542	11.08350808	0.90000000	0.40000000	2.40000000	0.60765078	90.20000000	67.90000000	95.30000000	122.60000000	90.20000000
12	1066.50000000	567.50000000	106.70000000	56.80000000	1.22000000	1.73861046	1.37958975	97.04000000	5.54558436	9.82860756	1.80000000	1.10000000	1.70000000	1.24633553	119.80000000	96.40000000	128.00000000	139.30000000	119.80000000
13	598.50000000	734.00000000	59.90000000	73.40000000	0.71000000	1.14147673	0.85703115	162.52000000	3.54558434	6.31033486	1.10000000	0.90000000	1.10000000	0.95078919	94.90000000	79.10000000	100.10000000	110.00000000	94.90000000
14	793.00000000	18.00000000	79.30000000	1.80000000	1.59000000	1.79677715	1.26831255	104.44000000	5.39411248	9.70095859	1.60000000	1.30000000	1.80000000	1.42283199	96.50000000	78.40000000	104.10000000	104.40000000	96.50000000
15	1111.50000000	128.00000000	111.20000000	12.80000000	1.74000000	1.96218491	1.32050428	146.95000000	5.31126980	10.41162379	1.80000000	1.20000000	2.00000000	1.48843435	91.40000000	69.90000000	99.80000000	104.20000000	91.40000000

#9
liczenie
obiektów (w)	udział punktów	pole obrazu(mm²)
	153	100.00	12288.0000
nr.	x(pix.):	y(pix.):	x(mm):	y(mm):	powierzchnia:(mm²)	długość:(mm)	szerokość:(mm)	kąt:(°)	obwód:(mm)	obwód C.:(mm)	średnica Fereta H(mm)	średnica Fereta V(mm)	średn. Martina:(mm)	średn. sitowa:(mm)	średnia jaskrawość	R	G	B	Y
1	1017.50000000	712.50000000	101.80000000	71.20000000	0.50000000	0.96232548	0.75820765	145.08000000	2.75563488	5.42425008	0.80000000	0.80000000	1.00000000	0.79388511	107.70000000	78.30000000	116.40000000	140.10000000	107.70000000
2	552.50000000	276.00000000	55.20000000	27.60000000	0.56000000	0.99572935	0.79750752	16.34000000	2.87279218	5.65084196	1.00000000	0.70000000	1.00000000	0.84062355	145.00000000	113.00000000	156.20000000	171.30000000	145.00000000
3	1131.50000000	481.00000000	113.20000000	48.10000000	0.49000000	1.02281618	0.78214955	142.27000000	2.92132032	5.69569825	0.80000000	0.80000000	1.00000000	0.78582516	126.00000000	94.50000000	136.50000000	154.90000000	126.00000000
4	1116.50000000	115.00000000	111.70000000	11.50000000	0.99000000	1.36876812	1.00492306	95.93000000	3.75563487	7.50103794	1.30000000	0.90000000	1.40000000	1.11988435	132.60000000	101.10000000	144.10000000	155.90000000	132.60000000
5	795.50000000	294.00000000	79.60000000	29.40000000	1.25000000	1.83212261	0.96298237	9.73000000	4.49705622	8.99465786	1.70000000	0.90000000	1.80000000	1.26156626	156.10000000	120.30000000	168.70000000	184.80000000	156.10000000
6	347.50000000	680.00000000	34.80000000	68.00000000	0.67000000	1.01122112	0.89326849	64.65000000	3.23847759	5.98886950	0.90000000	0.90000000	1.00000000	0.92016536	109.10000000	80.80000000	117.00000000	142.30000000	109.10000000
7	987.50000000	192.00000000	98.80000000	19.20000000	0.49000000	0.85725689	0.82359209	71.30000000	2.58994948	5.28107238	0.80000000	0.70000000	0.90000000	0.78582516	168.50000000	134.80000000	181.20000000	191.70000000	168.50000000
8	1180.50000000	408.50000000	118.10000000	40.90000000	0.78000000	1.35423059	0.86396255	51.75000000	3.74558434	7.05402789	1.20000000	0.80000000	1.40000000	0.99655750	119.70000000	90.40000000	129.80000000	144.20000000	119.70000000
9	1213.50000000	817.00000000	121.40000000	81.70000000	0.91000000	1.36769571	0.92966585	16.59000000	3.77989893	7.28311921	1.30000000	0.90000000	1.40000000	1.07640512	95.90000000	67.20000000	103.80000000	130.30000000	95.90000000
10	416.50000000	483.00000000	41.70000000	48.30000000	1.08000000	1.78069668	0.94078846	7.72000000	4.71126980	8.75462548	1.70000000	0.90000000	1.80000000	1.17264603	133.30000000	96.90000000	144.30000000	171.90000000	133.30000000
11	770.00000000	164.00000000	77.00000000	16.40000000	0.76000000	1.32755985	0.86134367	17.50000000	3.52132031	6.95485673	1.20000000	0.80000000	1.30000000	0.98045696	143.80000000	110.40000000	155.70000000	170.00000000	143.80000000
12	439.00000000	528.50000000	43.90000000	52.90000000	0.94000000	1.45651741	0.97567072	81.09000000	3.97989894	7.71579165	1.50000000	0.90000000	1.50000000	1.09400419	154.60000000	116.60000000	167.70000000	187.40000000	154.70000000
13	105.50000000	248.50000000	10.60000000	24.90000000	0.87000000	1.21533766	1.01521549	84.16000000	3.55563489	7.02159808	1.20000000	0.90000000	1.20000000	1.04945329	113.30000000	84.10000000	122.20000000	144.50000000	113.40000000
14	1224.00000000	534.00000000	122.40000000	53.40000000	0.38000000	0.79747639	0.70737844	141.46000000	2.41421353	4.73187848	0.70000000	0.70000000	0.80000000	0.69557963	126.90000000	95.30000000	138.00000000	152.20000000	126.90000000
15	1090.50000000	428.00000000	109.10000000	42.80000000	0.84000000	1.27228193	0.92428055	160.07000000	3.72132028	6.94407494	1.10000000	1.00000000	1.30000000	1.03109409	155.20000000	122.20000000	167.10000000	180.50000000	155.20000000
16	412.50000000	549.50000000	41.20000000	55.00000000	0.69000000	1.13011370	0.86792145	134.33000000	3.32132030	6.30406430	1.10000000	0.80000000	1.10000000	0.93389993	118.50000000	87.50000000	128.00000000	150.70000000	118.50000000
17	911.50000000	571.50000000	91.20000000	57.20000000	0.76000000	1.31187887	0.85158377	3.27000000	3.49705622	6.87385382	1.30000000	0.70000000	1.30000000	0.98369815	148.70000000	112.20000000	161.30000000	179.50000000	148.70000000
18	1125.50000000	624.00000000	112.60000000	62.40000000	0.64000000	1.04259787	0.87526102	148.15000000	3.09705623	6.03660403	1.00000000	0.80000000	1.00000000	0.90270333	129.80000000	95.50000000	140.80000000	163.60000000	129.80000000
19	1024.50000000	167.00000000	102.50000000	16.70000000	0.61000000	1.20188036	0.74823732	49.52000000	3.01421351	6.20964107	1.10000000	0.70000000	1.20000000	0.88129230	134.60000000	102.60000000	146.30000000	158.10000000	134.60000000
20	394.00000000	407.00000000	39.40000000	40.70000000	0.78000000	1.16815958	0.94806662	27.94000000	3.41421354	6.66631081	1.10000000	0.90000000	1.20000000	0.99655750	132.40000000	92.10000000	144.00000000	178.70000000	132.40000000
21	1157.50000000	462.50000000	115.80000000	46.20000000	0.81000000	1.30985098	0.90465183	27.92000000	3.47279218	7.01541917	1.10000000	0.90000000	1.30000000	1.01240201	111.40000000	82.20000000	121.10000000	138.60000000	111.50000000
22	983.00000000	468.50000000	98.30000000	46.90000000	0.43000000	0.86964989	0.76245060	45.00000000	2.44852811	5.13292641	0.70000000	0.70000000	0.90000000	0.73992770	140.70000000	104.70000000	153.00000000	172.00000000	140.70000000
23	445.00000000	460.00000000	44.50000000	46.00000000	1.16000000	1.77967148	1.02446461	75.74000000	4.32132031	8.96993431	1.70000000	0.90000000	1.80000000	1.21267954	110.20000000	83.80000000	118.00000000	139.20000000	110.20000000
24	1024.50000000	79.50000000	102.50000000	8.00000000	0.73000000	1.09977608	0.99008503	26.07000000	3.21421354	6.57001492	1.00000000	0.90000000	1.10000000	0.96408758	150.70000000	114.50000000	163.80000000	177.90000000	150.60000000
25	351.50000000	391.00000000	35.10000000	39.10000000	0.67000000	1.15622673	0.85518856	92.94000000	3.35563489	6.35448330	1.20000000	0.70000000	1.20000000	0.92016536	136.90000000	104.60000000	147.50000000	167.10000000	136.90000000
26	694.50000000	489.00000000	69.50000000	48.90000000	0.69000000	1.23992023	0.85003519	56.99000000	3.17989897	6.62303893	1.10000000	0.70000000	1.20000000	0.93730213	128.30000000	95.60000000	139.00000000	159.00000000	128.30000000
27	227.50000000	522.00000000	22.80000000	52.20000000	1.21000000	1.64974937	0.99227848	43.16000000	4.79411250	8.42918126	1.60000000	0.90000000	1.60000000	1.24121708	130.80000000	98.90000000	140.10000000	166.30000000	130.80000000
28	607.00000000	479.00000000	60.70000000	47.90000000	0.59000000	1.06679525	0.81722507	74.25000000	2.95563487	5.94481811	1.10000000	0.70000000	1.10000000	0.86304411	131.20000000	99.40000000	141.80000000	160.30000000	131.30000000
29	949.00000000	526.50000000	94.90000000	52.70000000	0.65000000	1.21477232	0.87043715	121.56000000	3.26274167	6.59561375	0.90000000	0.90000000	1.20000000	0.90972837	116.90000000	86.10000000	126.90000000	146.00000000	116.90000000
30	991.50000000	349.00000000	99.20000000	34.90000000	0.90000000	1.28618832	1.02028828	32.11000000	3.83847760	7.27010561	1.10000000	1.10000000	1.30000000	1.06749679	148.40000000	114.50000000	160.60000000	174.50000000	148.40000000
31	1075.50000000	277.50000000	107.60000000	27.80000000	0.53000000	0.94250278	0.83243961	20.15000000	2.73137082	5.58150759	0.90000000	0.70000000	0.90000000	0.82147243	101.40000000	73.60000000	109.70000000	131.20000000	101.40000000
32	886.00000000	201.00000000	88.60000000	20.10000000	0.98000000	1.33766766	1.07788649	160.15000000	3.81421353	7.61064567	1.30000000	0.90000000	1.30000000	1.11703839	150.00000000	116.30000000	162.10000000	176.00000000	150.00000000
33	750.50000000	17.00000000	75.00000000	1.70000000	0.29000000	0.78344903	0.62294846	161.92000000	2.07279218	4.43272559	0.60000000	0.60000000	0.80000000	0.60238963	130.20000000	101.90000000	140.50000000	152.10000000	130.30000000
34	843.00000000	760.00000000	84.30000000	76.00000000	1.07000000	1.71728020	0.86190758	62.14000000	4.34558437	8.32713422	1.60000000	0.90000000	1.70000000	1.16720449	95.30000000	71.60000000	101.90000000	123.50000000	95.30000000
35	1169.00000000	363.50000000	116.90000000	36.40000000	0.96000000	1.60107441	0.88732910	73.90000000	3.92132030	7.97918326	1.30000000	1.00000000	1.60000000	1.10269840	143.20000000	109.80000000	154.70000000	171.00000000	143.20000000
36	114.50000000	293.50000000	11.50000000	29.40000000	0.70000000	1.02327070	0.96756268	85.47000000	3.07279217	6.25561188	0.90000000	0.90000000	1.00000000	0.94069202	120.50000000	88.80000000	130.70000000	151.80000000	120.50000000
37	383.00000000	465.50000000	38.30000000	46.60000000	0.85000000	1.24387140	0.99981203	47.27000000	3.47279217	7.06960549	1.10000000	0.90000000	1.20000000	1.03724993	176.70000000	142.80000000	189.20000000	201.10000000	176.70000000
38	1180.00000000	320.50000000	118.00000000	32.10000000	0.77000000	1.25930557	0.86136246	37.76000000	3.35563487	6.72105414	1.10000000	0.90000000	1.30000000	0.98692870	137.00000000	104.80000000	148.40000000	162.40000000	137.00000000
39	57.00000000	386.50000000	5.70000000	38.70000000	0.51000000	0.92530708	0.75359259	82.02000000	2.83847759	5.28822156	0.80000000	0.80000000	0.90000000	0.80186406	113.80000000	88.60000000	121.50000000	139.80000000	113.80000000
40	1184.00000000	212.00000000	118.40000000	21.20000000	0.43000000	0.91213284	0.68298087	72.52000000	2.69705622	5.03708608	0.80000000	0.70000000	0.90000000	0.73992770	86.60000000	64.70000000	93.70000000	107.40000000	86.60000000
41	652.50000000	554.00000000	65.20000000	55.40000000	0.43000000	0.87810659	0.71064110	32.34000000	2.44852812	5.00507164	0.70000000	0.70000000	0.90000000	0.73992770	134.40000000	102.50000000	145.40000000	161.50000000	134.40000000
42	274.50000000	222.00000000	27.50000000	22.20000000	0.66000000	1.20561409	0.76514130	35.59000000	3.37989895	6.26887575	1.20000000	0.70000000	1.20000000	0.91669957	123.90000000	92.30000000	134.20000000	153.60000000	123.90000000
43	1042.50000000	361.50000000	104.20000000	36.10000000	0.38000000	0.77542624	0.72112551	64.83000000	2.55563489	4.70310354	0.80000000	0.70000000	0.80000000	0.69098830	112.30000000	85.80000000	121.90000000	131.80000000	112.20000000
44	224.50000000	232.00000000	22.50000000	23.20000000	1.33000000	1.81256046	1.01465569	65.40000000	4.82842705	9.05972139	1.80000000	1.00000000	1.80000000	1.30131034	130.60000000	99.50000000	140.20000000	162.80000000	130.60000000
45	64.50000000	130.00000000	6.50000000	13.00000000	0.64000000	1.06493130	0.82068863	38.37000000	3.07279218	5.94872315	0.90000000	0.90000000	1.10000000	0.89917023	114.00000000	87.80000000	122.40000000	140.10000000	114.10000000
46	443.50000000	96.00000000	44.40000000	9.60000000	1.03000000	1.47720251	0.96170626	53.46000000	3.92132028	7.74787422	1.30000000	1.00000000	1.50000000	1.14239684	157.80000000	126.60000000	169.00000000	181.70000000	157.80000000
47	752.00000000	734.00000000	75.20000000	73.40000000	1.67000000	1.73821774	1.38911819	92.34000000	5.28700573	9.85544601	1.70000000	1.30000000	1.70000000	1.45600269	109.30000000	79.80000000	117.40000000	144.80000000	109.30000000
48	683.00000000	831.00000000	68.30000000	83.10000000	1.33000000	1.40222654	1.29421244	58.88000000	4.68700572	8.47451152	1.30000000	1.30000000	1.40000000	1.29886196	102.20000000	76.30000000	109.30000000	133.70000000	102.20000000
49	709.00000000	44.50000000	70.90000000	4.50000000	1.01000000	1.77362156	0.83163605	24.12000000	4.20416301	8.45442159	1.60000000	0.80000000	1.80000000	1.13119660	149.90000000	114.90000000	162.50000000	177.80000000	150.00000000
50	577.00000000	36.00000000	57.70000000	3.60000000	0.75000000	1.30908327	0.83737173	95.47000000	3.41421353	6.82495417	1.30000000	0.70000000	1.30000000	0.97720502	151.80000000	119.40000000	163.30000000	177.40000000	151.80000000
51	1209.00000000	373.00000000	120.90000000	37.30000000	0.80000000	1.42296791	0.81426792	51.30000000	3.57989897	7.15916918	1.30000000	0.80000000	1.40000000	1.00925301	132.00000000	98.90000000	143.30000000	160.70000000	132.00000000
52	103.50000000	678.50000000	10.40000000	67.90000000	2.39000000	2.08683052	1.56519022	81.28000000	6.13553383	11.53175581	2.00000000	1.50000000	2.10000000	1.74260618	124.00000000	91.50000000	133.30000000	161.40000000	124.00000000
53	220.00000000	817.50000000	22.00000000	81.80000000	1.77000000	1.62097206	1.49665966	138.37000000	5.14558436	9.79822239	1.50000000	1.50000000	1.60000000	1.50121084	128.10000000	93.60000000	138.50000000	164.90000000	128.10000000
54	169.50000000	401.00000000	16.90000000	40.10000000	1.18000000	1.59709692	1.01479473	57.22000000	4.32132028	8.30778078	1.50000000	1.10000000	1.60000000	1.22313387	127.20000000	96.30000000	136.30000000	160.70000000	127.10000000
55	620.50000000	578.50000000	62.10000000	57.90000000	1.60000000	2.38351116	0.94523859	8.99000000	5.52132027	10.95163796	2.30000000	0.90000000	2.40000000	1.42506739	160.70000000	121.40000000	174.20000000	194.80000000	160.70000000
56	1058.50000000	394.00000000	105.90000000	39.40000000	1.08000000	1.53719435	0.96188221	129.55000000	4.20416303	7.95544989	1.50000000	0.90000000	1.50000000	1.16992842	154.50000000	119.90000000	167.00000000	181.20000000	154.50000000
57	884.00000000	766.00000000	88.40000000	76.60000000	0.47000000	0.89003487	0.74782219	75.78000000	2.61421353	5.15518246	0.80000000	0.70000000	0.90000000	0.77357778	116.20000000	86.40000000	125.10000000	148.40000000	116.20000000
58	764.00000000	458.50000000	76.40000000	45.90000000	0.42000000	0.82844439	0.76497955	67.90000000	2.38994946	5.00787443	0.70000000	0.70000000	0.80000000	0.72690743	123.60000000	92.10000000	133.80000000	153.30000000	123.60000000
59	1170.50000000	949.50000000	117.10000000	95.00000000	0.81000000	1.20963650	0.98969030	158.32000000	4.02842708	6.92667534	1.30000000	1.00000000	1.20000000	1.01554125	89.20000000	61.90000000	95.90000000	126.60000000	89.20000000
60	70.50000000	745.00000000	7.10000000	74.50000000	1.94000000	1.88590508	1.35148172	143.76000000	5.67695518	10.23995870	1.80000000	1.30000000	1.90000000	1.57165032	109.70000000	81.90000000	117.30000000	143.50000000	109.70000000
61	46.50000000	62.00000000	4.70000000	6.20000000	0.77000000	1.30622387	0.82613583	24.26000000	3.47279218	6.78417085	1.10000000	0.90000000	1.30000000	0.98692870	141.70000000	107.50000000	153.20000000	172.20000000	141.70000000
62	266.00000000	313.00000000	26.60000000	31.30000000	1.27000000	1.79758797	1.10953712	68.22000000	4.96984843	9.26135604	1.80000000	1.00000000	1.80000000	1.26911309	118.70000000	90.10000000	127.20000000	150.40000000	118.80000000
63	745.50000000	569.50000000	74.50000000	57.00000000	1.44000000	2.18331261	1.06207371	137.34000000	5.39411246	10.50226499	2.00000000	1.00000000	2.20000000	1.35405500	126.10000000	96.10000000	135.20000000	157.90000000	126.10000000
64	831.50000000	432.50000000	83.20000000	43.20000000	1.10000000	1.57583961	0.97245359	142.14000000	4.28700567	8.11830790	1.50000000	0.90000000	1.60000000	1.18076132	151.50000000	117.00000000	163.40000000	181.30000000	151.50000000
65	739.50000000	490.00000000	74.00000000	49.00000000	1.17000000	1.47509298	1.18103724	66.63000000	4.26274164	8.37006701	1.30000000	1.20000000	1.50000000	1.22052868	148.00000000	114.80000000	158.80000000	179.10000000	148.00000000
66	662.50000000	764.50000000	66.20000000	76.50000000	1.32000000	1.59286795	1.13940010	117.26000000	5.07695519	8.64288551	1.60000000	1.20000000	1.60000000	1.29640896	118.60000000	86.30000000	127.30000000	158.10000000	118.60000000
67	1150.00000000	791.00000000	115.00000000	79.10000000	1.58000000	2.12775822	1.08212729	11.38000000	5.23847759	10.35349666	2.10000000	0.90000000	2.10000000	1.41610462	99.70000000	71.70000000	107.70000000	131.80000000	99.70000000
68	899.00000000	466.00000000	89.90000000	46.60000000	0.37000000	0.81908407	0.71839495	151.73000000	2.33137082	4.83531318	0.70000000	0.70000000	0.80000000	0.68636625	91.90000000	69.10000000	98.90000000	116.50000000	92.00000000
69	338.50000000	181.50000000	33.90000000	18.20000000	1.20000000	1.63964520	1.22555265	78.17000000	4.27279220	9.04834969	1.50000000	0.90000000	1.60000000	1.23349960	137.10000000	102.90000000	148.00000000	170.60000000	137.10000000
70	555.50000000	653.50000000	55.60000000	65.40000000	1.31000000	1.88790283	0.95085926	54.61000000	4.91126976	9.16286516	1.80000000	0.90000000	1.90000000	1.29148899	147.50000000	109.40000000	159.60000000	185.70000000	147.60000000
71	1167.00000000	442.50000000	116.70000000	44.20000000	0.90000000	1.54884253	0.84216938	79.49000000	3.95563489	7.67653958	1.50000000	0.80000000	1.50000000	1.06749679	144.60000000	110.10000000	156.00000000	176.90000000	144.60000000
72	1039.00000000	717.50000000	103.90000000	71.80000000	0.48000000	0.94120388	0.72389073	177.91000000	2.61421351	5.25334809	0.80000000	0.70000000	0.90000000	0.78176402	100.20000000	73.20000000	107.60000000	132.40000000	100.20000000
73	1031.50000000	634.00000000	103.20000000	63.40000000	1.66000000	2.30218544	1.24972124	128.63000000	6.24264060	11.40494911	2.20000000	1.10000000	2.30000000	1.45381486	123.40000000	89.90000000	133.20000000	161.10000000	123.40000000
74	738.00000000	514.00000000	73.80000000	51.40000000	1.73000000	2.18156166	1.21568213	58.75000000	5.48700570	10.88954811	2.00000000	1.30000000	2.20000000	1.48200480	154.40000000	118.60000000	166.00000000	189.20000000	154.50000000
75	509.50000000	924.50000000	51.00000000	92.50000000	1.10000000	1.40414715	1.06280994	161.97000000	4.14558437	7.78731218	1.30000000	1.10000000	1.40000000	1.18345405	98.20000000	70.70000000	105.40000000	133.00000000	98.20000000
76	55.00000000	285.00000000	5.50000000	28.50000000	1.44000000	1.77650261	1.18204012	141.27000000	4.68700575	9.38858780	1.70000000	1.10000000	1.80000000	1.35170217	119.30000000	89.50000000	128.30000000	151.60000000	119.40000000
77	1055.00000000	446.00000000	105.50000000	44.60000000	0.40000000	0.88422966	0.68157258	160.49000000	2.55563488	4.93973492	0.70000000	0.70000000	0.90000000	0.70917531	93.30000000	68.20000000	100.10000000	123.80000000	93.30000000
78	463.00000000	197.50000000	46.30000000	19.80000000	1.17000000	1.75026340	0.97016506	177.31000000	4.68700572	8.72309192	1.30000000	1.30000000	1.80000000	1.21791792	153.80000000	117.90000000	166.50000000	182.50000000	153.80000000
79	651.00000000	643.50000000	65.10000000	64.40000000	1.73000000	2.18699455	1.29036045	30.10000000	6.02842708	11.10678175	2.20000000	1.20000000	2.20000000	1.48415107	132.10000000	99.80000000	141.60000000	168.20000000	132.20000000
80	1085.50000000	92.50000000	108.60000000	9.20000000	0.81000000	1.18896217	0.98813696	162.88000000	3.35563488	6.85411590	1.10000000	0.90000000	1.20000000	1.01240201	139.50000000	106.00000000	151.80000000	164.10000000	139.50000000
81	70.50000000	266.00000000	7.10000000	26.60000000	0.88000000	1.25297699	1.00899343	25.76000000	3.75563488	7.12687396	1.10000000	0.90000000	1.30000000	1.05550206	120.80000000	90.70000000	130.40000000	150.80000000	120.80000000
82	432.50000000	813.50000000	43.20000000	81.40000000	3.60000000	3.36666336	1.51330814	114.00000000	8.72548330	15.88888479	3.20000000	1.50000000	3.40000000	2.14094894	136.10000000	102.30000000	145.80000000	175.30000000	136.10000000
83	918.50000000	804.50000000	91.90000000	80.50000000	0.84000000	1.19302464	0.99429903	54.10000000	3.86274165	6.88586756	1.20000000	1.00000000	1.20000000	1.03417659	102.50000000	74.60000000	110.50000000	134.30000000	102.50000000
84	925.50000000	764.50000000	92.60000000	76.50000000	1.90000000	1.95123558	1.31813993	67.62000000	5.53553385	10.36756004	1.80000000	1.30000000	2.00000000	1.55331547	149.50000000	110.50000000	162.30000000	186.50000000	149.50000000
85	1199.00000000	331.00000000	119.90000000	33.10000000	1.17000000	1.92708244	0.86190796	155.48000000	4.48700571	9.08440723	1.70000000	0.90000000	1.90000000	1.21791792	118.50000000	88.60000000	129.00000000	143.30000000	118.50000000
86	316.50000000	181.50000000	31.70000000	18.20000000	0.72000000	1.25166130	0.84269180	47.84000000	3.29705623	6.64247753	1.20000000	0.80000000	1.30000000	0.95746147	156.30000000	119.20000000	169.70000000	184.10000000	156.30000000
87	1137.50000000	297.00000000	113.80000000	29.70000000	0.30000000	0.75370641	0.66969986	135.00000000	2.21421351	4.47565744	0.60000000	0.60000000	0.80000000	0.61803872	88.20000000	69.20000000	95.30000000	101.60000000	88.20000000
88	254.00000000	102.00000000	25.40000000	10.20000000	2.57000000	3.67436180	1.07289581	48.67000000	8.09116873	16.05641089	3.30000000	1.10000000	3.70000000	1.80892942	157.00000000	120.30000000	169.40000000	189.50000000	157.00000000
89	262.00000000	51.00000000	26.20000000	5.10000000	0.53000000	0.95474148	0.79315724	81.28000000	2.67279217	5.50292405	0.90000000	0.70000000	1.00000000	0.81758838	137.90000000	104.40000000	150.00000000	163.40000000	137.90000000
90	504.50000000	187.00000000	50.50000000	18.70000000	1.56000000	2.26197109	0.94826984	77.05000000	5.52132031	10.51211320	2.20000000	1.00000000	2.30000000	1.40708475	170.90000000	133.90000000	184.00000000	200.80000000	170.90000000
91	177.00000000	9.50000000	17.70000000	1.00000000	0.40000000	0.77967215	0.75155334	160.09000000	2.47279217	4.81089231	0.80000000	0.70000000	0.80000000	0.70917531	121.40000000	94.00000000	130.80000000	145.00000000	121.40000000
92	1136.00000000	370.50000000	113.60000000	37.10000000	0.68000000	1.18329496	0.87117653	29.08000000	3.12132032	6.49160821	1.10000000	0.70000000	1.20000000	0.92705808	127.50000000	95.00000000	138.80000000	154.20000000	127.50000000
93	471.00000000	924.50000000	47.10000000	92.50000000	1.13000000	1.31264315	1.18652363	115.73000000	4.45269113	7.85636350	1.30000000	1.10000000	1.30000000	1.19682684	96.50000000	71.00000000	103.00000000	130.30000000	96.60000000
94	348.00000000	948.00000000	34.80000000	94.80000000	1.04000000	1.34902248	1.13608961	132.45000000	4.06274167	7.82154593	1.30000000	1.10000000	1.30000000	1.15072548	86.10000000	66.40000000	91.50000000	109.80000000	86.10000000
95	715.50000000	10.00000000	71.50000000	1.00000000	0.49000000	1.44038134	0.84536467	160.88000000	2.90710677	7.30305931	0.90000000	0.70000000	1.40000000	0.78582516	142.80000000	109.90000000	154.00000000	171.50000000	142.80000000
96	554.00000000	856.50000000	55.40000000	85.70000000	1.44000000	1.81375294	1.16623135	42.18000000	5.13553383	9.47273238	1.70000000	1.10000000	1.80000000	1.35170217	112.10000000	85.20000000	119.60000000	143.90000000	112.10000000
97	406.50000000	70.50000000	40.70000000	7.10000000	0.40000000	0.78758268	0.75809574	45.00000000	2.33137082	4.85633380	0.70000000	0.70000000	0.80000000	0.71364965	117.40000000	91.90000000	126.60000000	137.00000000	117.40000000
98	199.50000000	38.00000000	20.00000000	3.80000000	1.63000000	2.38212185	1.00149078	69.28000000	5.66274165	11.07719214	2.30000000	1.00000000	2.40000000	1.44061808	152.40000000	121.50000000	163.20000000	177.60000000	152.40000000
99	35.00000000	31.00000000	3.50000000	3.10000000	0.33000000	0.75929184	0.63894739	75.99000000	2.18994948	4.40083693	0.70000000	0.60000000	0.80000000	0.64327510	100.90000000	80.50000000	107.80000000	119.20000000	100.90000000
100	561.00000000	917.50000000	56.10000000	91.80000000	3.01000000	2.73939476	1.44701300	91.52000000	7.58406196	13.46725069	2.80000000	1.50000000	2.70000000	1.95603804	112.40000000	84.20000000	119.80000000	148.40000000	112.40000000
101	606.00000000	415.50000000	60.60000000	41.60000000	0.94000000	1.23234768	1.09775448	159.07000000	3.74558436	7.32633916	1.10000000	1.10000000	1.20000000	1.09400419	174.70000000	140.50000000	186.90000000	201.40000000	174.70000000
102	1193.50000000	168.00000000	119.40000000	16.80000000	1.14000000	1.72348785	1.01062498	55.95000000	4.74558434	8.73607718	1.70000000	0.90000000	1.70000000	1.20477927	116.00000000	87.40000000	126.10000000	139.20000000	116.00000000
103	497.50000000	310.00000000	49.80000000	31.00000000	2.78000000	3.46578598	1.09983959	112.96000000	7.61837652	15.32365366	3.10000000	1.10000000	3.50000000	1.87969139	157.60000000	121.40000000	170.00000000	188.40000000	157.60000000
104	851.00000000	950.00000000	85.10000000	95.00000000	0.52000000	0.96314659	0.78603187	6.68000000	2.77989892	5.50930051	0.80000000	0.80000000	1.00000000	0.81368579	85.20000000	62.00000000	90.50000000	118.90000000	85.20000000
105	589.00000000	414.00000000	58.90000000	41.40000000	0.44000000	0.87122831	0.72888355	6.35000000	2.55563488	5.03685002	0.80000000	0.70000000	0.90000000	0.74421717	119.10000000	89.60000000	128.70000000	146.40000000	119.00000000
106	1038.50000000	897.50000000	103.90000000	89.80000000	2.03000000	2.42673931	1.24233580	121.17000000	6.07695516	11.82903254	2.10000000	1.30000000	2.40000000	1.60769284	117.10000000	85.70000000	125.50000000	155.70000000	117.10000000
107	256.00000000	66.00000000	25.60000000	6.60000000	0.72000000	1.31872530	0.83184090	89.09000000	3.29705622	6.84305819	1.30000000	0.70000000	1.30000000	0.95746147	148.10000000	114.00000000	160.50000000	173.70000000	148.10000000
108	159.50000000	519.00000000	16.00000000	51.90000000	1.93000000	2.20039330	1.36536961	179.57000000	5.72132030	11.35628842	2.10000000	1.10000000	2.20000000	1.56556256	140.70000000	102.50000000	152.20000000	181.10000000	140.70000000
109	516.00000000	865.00000000	51.60000000	86.50000000	2.51000000	2.39284630	1.82446251	27.58000000	8.30121926	13.30929914	2.10000000	1.90000000	2.40000000	1.78590735	84.40000000	64.70000000	90.70000000	103.70000000	84.40000000
110	682.00000000	79.00000000	68.20000000	7.90000000	2.31000000	3.00989113	1.27665176	86.71000000	7.01421354	14.02286905	2.90000000	0.90000000	3.00000000	1.71498786	147.60000000	115.30000000	158.70000000	175.00000000	147.60000000
111	765.00000000	856.50000000	76.50000000	85.70000000	0.42000000	0.79526162	0.75126414	170.25000000	2.38994948	4.85953711	0.70000000	0.70000000	0.80000000	0.72690743	88.70000000	69.50000000	94.30000000	110.70000000	88.80000000
112	222.50000000	589.00000000	22.20000000	58.90000000	1.92000000	2.59688568	1.20528221	151.94000000	8.06690465	12.34835760	2.50000000	1.30000000	2.60000000	1.56149087	116.50000000	86.80000000	125.20000000	149.20000000	116.50000000
113	840.50000000	136.00000000	84.10000000	13.60000000	0.34000000	0.89185715	0.56481962	6.50000000	2.35563487	4.63413531	0.80000000	0.60000000	0.90000000	0.65309666	90.00000000	70.70000000	97.10000000	104.50000000	90.10000000
114	323.00000000	655.50000000	32.30000000	65.50000000	1.54000000	1.95545177	1.27425098	81.21000000	5.31126974	10.25957154	2.00000000	1.20000000	2.00000000	1.40028172	106.40000000	80.60000000	113.60000000	136.50000000	106.40000000
115	818.00000000	950.50000000	81.80000000	95.10000000	1.07000000	1.56376743	1.11116800	27.69000000	4.23847760	8.46381161	1.20000000	1.20000000	1.60000000	1.16447418	96.40000000	72.10000000	102.00000000	130.70000000	96.40000000
116	184.50000000	619.00000000	18.40000000	61.90000000	1.34000000	1.48143349	1.25423050	13.81000000	5.15979789	8.60916852	1.30000000	1.30000000	1.50000000	1.30619332	83.50000000	61.40000000	89.50000000	110.40000000	83.50000000
117	1211.50000000	310.50000000	121.20000000	31.10000000	0.34000000	0.77853508	0.63471627	2.58000000	2.41421354	4.45136234	0.80000000	0.60000000	0.80000000	0.65795246	88.20000000	66.60000000	95.70000000	106.10000000	88.20000000
118	821.00000000	413.50000000	82.10000000	41.40000000	0.52000000	0.96658993	0.75114379	12.78000000	2.67279217	5.41766380	0.90000000	0.70000000	1.00000000	0.80976439	158.10000000	119.70000000	172.50000000	184.90000000	158.10000000
119	618.50000000	143.50000000	61.90000000	14.40000000	0.84000000	1.24194965	0.96693430	126.10000000	3.52132031	6.96633224	1.20000000	0.80000000	1.20000000	1.03109409	144.20000000	110.80000000	156.30000000	169.80000000	144.20000000
120	602.50000000	53.00000000	60.20000000	5.30000000	1.95000000	2.64280491	1.21154327	132.32000000	6.87695519	12.52994414	2.40000000	1.20000000	2.60000000	1.57569575	142.30000000	111.40000000	152.80000000	169.10000000	142.30000000
121	691.50000000	419.50000000	69.20000000	42.00000000	0.38000000	0.81190872	0.71279883	134.70000000	2.41421353	4.79507124	0.70000000	0.70000000	0.80000000	0.69557963	85.60000000	66.30000000	92.10000000	103.10000000	85.70000000
122	1244.50000000	897.00000000	124.50000000	89.70000000	0.98000000	1.38133478	1.05977249	158.59000000	4.33553385	7.70226942	1.20000000	1.20000000	1.40000000	1.11418515	70.20000000	51.00000000	75.30000000	94.20000000	70.20000000
123	217.50000000	600.50000000	21.80000000	60.10000000	1.32000000	2.45774632	1.15429745	148.47000000	6.99411248	11.72010382	2.20000000	1.30000000	2.50000000	1.29640896	115.20000000	85.70000000	124.30000000	146.10000000	115.20000000
124	242.50000000	219.00000000	24.20000000	21.90000000	0.43000000	0.79008904	0.75377316	13.66000000	2.47279218	4.85085709	0.80000000	0.70000000	0.80000000	0.73561322	89.40000000	68.20000000	96.20000000	109.80000000	89.40000000
125	587.50000000	7.00000000	58.80000000	0.70000000	0.12000000	0.71632733	0.44020276	80.78000000	1.62426406	3.68531134	0.70000000	0.20000000	0.70000000	0.38265199	113.80000000	88.20000000	122.20000000	137.50000000	113.80000000
126	694.00000000	350.00000000	69.40000000	35.00000000	0.53000000	0.91088276	0.83374004	157.43000000	3.06274164	5.48357354	0.80000000	0.80000000	0.90000000	0.82147243	94.90000000	72.80000000	102.50000000	113.20000000	94.90000000
127	326.00000000	114.50000000	32.60000000	11.50000000	3.16000000	2.34440727	1.87000408	59.85000000	7.47695519	13.28193898	2.10000000	2.10000000	2.30000000	2.00585068	155.50000000	118.50000000	167.80000000	189.70000000	155.50000000
128	932.50000000	182.50000000	93.20000000	18.20000000	1.76000000	2.34137249	1.03822279	96.81000000	5.57989894	11.01577544	2.20000000	1.10000000	2.30000000	1.49696413	108.40000000	85.60000000	117.80000000	120.10000000	108.40000000
129	206.50000000	169.00000000	20.70000000	16.90000000	6.22000000	8.53748322	1.20127592	73.29000000	19.78233746	35.11811410	8.50000000	1.30000000	8.50000000	2.81416950	93.50000000	72.30000000	100.10000000	114.60000000	93.50000000
130	323.50000000	251.00000000	32.40000000	25.10000000	0.67000000	1.00499163	0.94564886	19.49000000	3.01421351	6.12953582	0.90000000	0.90000000	1.00000000	0.92361815	91.60000000	73.50000000	97.80000000	106.80000000	91.60000000
131	788.00000000	11.50000000	78.80000000	1.20000000	1.05000000	1.79202080	1.22628841	98.01000000	4.47279220	9.56576398	1.70000000	0.80000000	1.80000000	1.15348833	156.90000000	123.90000000	166.60000000	193.70000000	156.90000000
132	1226.50000000	12.00000000	122.70000000	1.20000000	0.89000000	1.32968311	0.96912956	76.54000000	3.69705623	7.26641633	1.30000000	0.90000000	1.30000000	1.06451078	101.60000000	77.20000000	110.80000000	118.00000000	101.60000000
133	655.00000000	398.00000000	65.50000000	39.80000000	1.44000000	2.17951126	1.11315718	94.59000000	6.70121924	10.61728400	2.30000000	1.10000000	2.20000000	1.35170217	143.50000000	111.70000000	153.90000000	173.60000000	143.50000000
134	168.00000000	890.00000000	16.80000000	89.00000000	2.10000000	1.77236786	1.56863794	75.48000000	5.98406196	10.50583869	1.70000000	1.60000000	1.80000000	1.63322896	93.90000000	70.10000000	100.50000000	122.40000000	93.90000000
135	806.00000000	395.00000000	80.60000000	39.50000000	2.07000000	2.10604324	1.75756264	104.49000000	7.15979789	12.16257463	2.10000000	1.70000000	2.10000000	1.62345491	147.90000000	113.00000000	159.30000000	180.90000000	147.90000000
136	142.50000000	426.00000000	14.20000000	42.60000000	1.91000000	2.17370834	1.41823473	38.27000000	6.13553382	11.40956642	2.00000000	1.50000000	2.20000000	1.55740853	109.60000000	83.70000000	117.30000000	137.50000000	109.60000000
137	585.00000000	787.50000000	58.50000000	78.80000000	2.44000000	2.59197197	1.56028585	121.88000000	8.11543276	13.24681816	2.50000000	1.50000000	2.60000000	1.76077775	113.10000000	85.70000000	120.60000000	146.60000000	113.10000000
138	959.50000000	663.00000000	96.00000000	66.30000000	0.42000000	1.04298534	0.75156770	102.68000000	2.72132032	5.67498398	0.80000000	0.70000000	1.00000000	0.72690743	71.30000000	55.10000000	76.50000000	86.90000000	71.30000000
139	865.00000000	357.00000000	86.50000000	35.70000000	2.00000000	2.12088432	1.54168806	89.88000000	7.15979788	11.57836111	2.10000000	1.50000000	2.10000000	1.59576912	146.80000000	113.30000000	157.80000000	177.80000000	146.80000000
140	500.00000000	415.00000000	50.00000000	41.50000000	0.64000000	1.46671009	0.89714584	101.02000000	3.38994946	7.53445334	1.00000000	0.90000000	1.50000000	0.89917023	179.10000000	142.90000000	193.60000000	199.00000000	179.10000000
141	624.00000000	125.00000000	62.40000000	12.50000000	0.72000000	1.62747192	0.76882033	1.49000000	3.84852812	7.77182738	1.50000000	0.50000000	1.60000000	0.95746147	99.60000000	77.30000000	108.30000000	113.50000000	99.60000000
142	141.00000000	790.50000000	14.10000000	79.10000000	2.05000000	1.72109203	1.60495720	15.49000000	6.38406194	10.45227691	1.80000000	1.70000000	1.70000000	1.61362166	85.40000000	64.70000000	91.40000000	109.00000000	85.40000000
143	304.00000000	717.00000000	30.40000000	71.70000000	3.17000000	2.66692867	1.86797504	92.51000000	7.80832601	14.35758793	2.50000000	1.80000000	2.70000000	2.00902199	128.70000000	95.30000000	138.30000000	167.10000000	128.80000000
144	12.00000000	879.00000000	1.20000000	87.90000000	2.08000000	2.18625698	1.50461388	84.30000000	6.05269114	11.69429777	1.70000000	1.60000000	2.20000000	1.62541443	93.70000000	70.10000000	99.00000000	128.30000000	93.70000000
145	1072.50000000	533.00000000	107.20000000	53.30000000	0.34000000	0.76665678	0.61714315	80.48000000	2.27279218	4.36003255	0.70000000	0.60000000	0.80000000	0.65309666	69.20000000	54.50000000	74.40000000	81.00000000	69.20000000
146	693.50000000	63.00000000	69.40000000	6.30000000	0.45000000	1.62032261	0.97750731	24.22000000	3.82426406	8.28673457	1.70000000	0.30000000	1.60000000	0.75272279	98.10000000	76.60000000	104.30000000	122.40000000	98.10000000
147	509.50000000	425.00000000	51.00000000	42.50000000	1.11000000	1.41166220	1.12994394	96.53000000	4.17989894	8.00923521	1.40000000	1.10000000	1.40000000	1.18882122	168.70000000	132.50000000	182.20000000	194.00000000	168.70000000
148	4.00000000	912.00000000	0.40000000	91.20000000	1.13000000	2.55197163	2.17126789	151.12000000	5.35563488	14.86260477	2.20000000	0.70000000	2.60000000	1.19682684	68.70000000	54.30000000	73.10000000	83.10000000	68.60000000
149	109.50000000	832.50000000	11.00000000	83.20000000	2.82000000	2.56714439	1.46502953	133.61000000	7.13553383	12.90516830	2.60000000	1.50000000	2.60000000	1.89319025	95.00000000	71.00000000	101.40000000	125.00000000	95.00000000
150	383.50000000	168.50000000	38.40000000	16.90000000	1.65000000	2.47955666	1.10527210	85.09000000	7.18406192	11.67980578	2.50000000	1.10000000	2.50000000	1.44723151	156.30000000	123.10000000	167.90000000	183.60000000	156.30000000
151	905.50000000	820.50000000	90.60000000	82.10000000	1.51000000	1.79203396	1.20267658	26.74000000	5.47695519	9.49947788	1.70000000	1.30000000	1.80000000	1.38657553	82.60000000	62.90000000	88.40000000	104.50000000	82.60000000
152	686.50000000	954.00000000	68.70000000	95.40000000	0.49000000	3.89185486	1.30448265	176.22000000	2.93137082	17.35336977	1.00000000	0.70000000	3.90000000	0.78986542	78.10000000	59.10000000	82.00000000	108.10000000	78.10000000
153	1054.00000000	185.50000000	105.40000000	18.60000000	2.34000000	2.54677906	1.44506283	98.68000000	8.63259004	12.78071233	2.70000000	1.50000000	2.50000000	1.72424312	126.90000000	95.50000000	137.40000000	155.00000000	126.90000000

#10
liczenie
obiektów (w)	udział punktów	pole obrazu(mm²)
	24	100.00	12288.0000
nr.	x(pix.):	y(pix.):	x(mm):	y(mm):	powierzchnia:(mm²)	długość:(mm)	szerokość:(mm)	kąt:(°)	obwód:(mm)	obwód C.:(mm)	średnica Fereta H(mm)	średnica Fereta V(mm)	średn. Martina:(mm)	średn. sitowa:(mm)	średnia jaskrawość	R	G	B	Y
1	803.50000000	701.00000000	80.40000000	70.10000000	0.74000000	1.29412718	0.83921728	122.90000000	3.43847759	6.77850509	1.20000000	0.80000000	1.30000000	0.96738362	147.80000000	113.50000000	160.40000000	172.70000000	147.80000000
2	101.50000000	587.50000000	10.20000000	58.80000000	1.03000000	1.50284805	0.93567133	81.25000000	4.17989895	7.76479945	1.50000000	0.90000000	1.50000000	1.14517978	150.20000000	114.90000000	163.90000000	172.20000000	150.20000000
3	942.00000000	949.00000000	94.20000000	94.90000000	0.64000000	1.33143730	0.68069162	37.12000000	3.32132028	6.48769331	1.20000000	0.70000000	1.30000000	0.89917023	104.60000000	76.60000000	113.50000000	132.10000000	104.60000000
4	870.00000000	727.00000000	87.00000000	72.70000000	0.85000000	1.43407526	0.84985914	162.64000000	3.63847758	7.29304855	1.30000000	0.90000000	1.40000000	1.03724993	138.60000000	103.80000000	151.00000000	166.20000000	138.60000000
5	1036.50000000	133.00000000	103.70000000	13.30000000	0.66000000	1.30708799	0.90055914	135.82000000	3.40416298	6.99444904	0.90000000	0.80000000	1.30000000	0.91322062	119.00000000	85.60000000	131.70000000	140.90000000	119.00000000
6	718.00000000	610.00000000	71.80000000	61.00000000	1.56000000	2.12615185	1.05258379	135.39000000	5.39411246	10.27315354	1.90000000	1.00000000	2.10000000	1.40934513	133.80000000	101.50000000	145.30000000	159.60000000	133.80000000
7	1263.50000000	741.00000000	126.40000000	74.10000000	0.74000000	1.24696531	0.93955288	158.05000000	3.35563488	6.90313694	1.10000000	0.90000000	1.20000000	0.96738362	112.40000000	79.10000000	123.10000000	144.80000000	112.50000000
8	966.00000000	854.50000000	96.60000000	85.50000000	1.05000000	1.87721500	0.79865394	71.88000000	4.68700571	8.75154781	1.80000000	0.80000000	1.90000000	1.15348833	141.90000000	108.10000000	153.30000000	172.30000000	141.90000000
9	915.00000000	350.50000000	91.50000000	35.10000000	2.27000000	1.88653030	1.58631048	8.83000000	5.68700571	10.93064437	1.90000000	1.50000000	1.90000000	1.69820127	164.70000000	125.20000000	178.20000000	198.30000000	164.70000000
10	872.50000000	39.50000000	87.20000000	4.00000000	2.13000000	1.86409302	1.54048700	74.82000000	5.71126976	10.71997517	1.80000000	1.60000000	1.90000000	1.64681518	141.20000000	103.40000000	154.60000000	171.30000000	141.20000000
11	297.00000000	809.00000000	29.70000000	80.90000000	0.39000000	0.83395882	0.67294393	52.93000000	2.33137082	4.74759679	0.70000000	0.70000000	0.80000000	0.70467256	82.70000000	64.90000000	89.80000000	93.40000000	82.70000000
12	783.00000000	837.50000000	78.30000000	83.80000000	1.50000000	1.98278866	1.26048307	63.56000000	5.99411248	10.31577747	2.00000000	1.20000000	2.00000000	1.38197660	126.40000000	95.90000000	136.60000000	154.20000000	126.40000000
13	1005.50000000	307.50000000	100.60000000	30.80000000	0.75000000	1.19188061	1.00194550	139.90000000	3.68700569	6.90502914	1.20000000	0.80000000	1.20000000	0.97394223	96.40000000	72.60000000	105.90000000	109.80000000	96.40000000
14	752.00000000	120.50000000	75.20000000	12.10000000	3.33000000	2.89402256	1.55875864	14.66000000	7.67695515	14.30511314	2.90000000	1.60000000	2.90000000	2.05909876	143.00000000	104.10000000	157.10000000	172.50000000	143.00000000
15	250.00000000	16.50000000	25.00000000	1.70000000	1.51000000	1.54390163	1.31801796	109.81000000	5.02842706	9.00499342	1.50000000	1.40000000	1.50000000	1.38657553	105.30000000	78.10000000	116.10000000	121.30000000	105.30000000
16	1033.50000000	862.00000000	103.40000000	86.20000000	7.31000000	7.80360413	2.58429203	55.02000000	25.02914110	34.72894436	8.70000000	2.20000000	7.80000000	3.04975653	91.20000000	66.60000000	99.00000000	115.70000000	91.20000000
17	680.00000000	294.50000000	68.00000000	29.50000000	2.19000000	2.09386730	1.48776217	35.12000000	6.33553385	11.33272340	2.10000000	1.40000000	2.10000000	1.66794137	111.50000000	81.90000000	122.30000000	133.80000000	111.50000000
18	14.50000000	422.00000000	1.50000000	42.20000000	3.23000000	2.57768669	1.70485992	177.06000000	7.52548326	13.59409882	2.70000000	1.70000000	2.60000000	2.02794569	146.30000000	109.40000000	159.50000000	175.30000000	146.30000000
19	1249.00000000	730.50000000	124.90000000	73.00000000	0.39000000	0.79520574	0.71848621	21.51000000	2.33137082	4.75845797	0.70000000	0.70000000	0.80000000	0.70467256	63.30000000	46.40000000	69.10000000	77.50000000	63.30000000
20	507.50000000	223.00000000	50.80000000	22.30000000	1.71000000	1.52645092	1.48372297	52.82000000	5.25269113	9.45721654	1.50000000	1.50000000	1.50000000	1.47338842	104.00000000	76.80000000	115.40000000	116.70000000	104.00000000
21	516.50000000	12.50000000	51.70000000	1.20000000	1.66000000	1.65221004	1.44376554	91.41000000	5.14558436	9.73731962	1.70000000	1.30000000	1.70000000	1.45381486	96.20000000	74.00000000	105.50000000	107.00000000	96.30000000
22	1176.00000000	19.50000000	117.60000000	2.00000000	2.22000000	2.66935139	1.16574421	17.60000000	7.20832603	12.51593989	2.80000000	1.20000000	2.70000000	1.68124709	87.30000000	63.30000000	95.60000000	107.90000000	87.30000000
23	533.00000000	151.00000000	53.30000000	15.10000000	2.59000000	2.27215576	1.62730198	23.44000000	6.59411244	12.33440644	2.30000000	1.60000000	2.30000000	1.81595441	113.00000000	82.60000000	124.50000000	133.20000000	113.00000000
24	1200.00000000	860.00000000	120.00000000	86.00000000	3.00000000	2.40982780	1.79538403	96.33000000	6.92548337	13.28166972	2.10000000	1.80000000	2.40000000	1.95441005	74.00000000	54.50000000	79.30000000	98.20000000	74.00000000
