
#1
liczenie
obiektów (w)	udział punktów	pole obrazu(mm²)
	59	100.00	12288.0000
nr.	x(pix.):	y(pix.):	x(mm):	y(mm):	powierzchnia:(mm²)	długość:(mm)	szerokość:(mm)	kąt:(°)	obwód:(mm)	obwód C.:(mm)	średnica Fereta H(mm)	średnica Fereta V(mm)	średn. Martina:(mm)	średn. sitowa:(mm)	średnia jaskrawość	R	G	B	Y
1	418.50000000	527.50000000	41.90000000	52.80000000	0.26000000	0	0	0	2.36568542	2.36568542	0.70000000	0.50000000	0	0.57536274	177.90000000	140.50000000	191.60000000	205.80000000	177.90000000
2	409.50000000	726.50000000	41.00000000	72.70000000	0.23000000	0	0	0	2.96568542	2.96568542	0.70000000	0.50000000	0	0.54115164	180.40000000	144.00000000	193.90000000	206.30000000	180.40000000
3	567.50000000	796.00000000	56.80000000	79.60000000	0.28000000	0	0	0	3.04852812	3.04852812	0.70000000	0.60000000	0	0.59708213	164.80000000	128.80000000	177.50000000	193.90000000	164.80000000
4	396.00000000	229.50000000	39.60000000	23.00000000	0.47000000	0	0	0	3.27279218	3.27279218	0.90000000	0.80000000	0	0.76945201	202.70000000	165.00000000	217.40000000	226.00000000	202.70000000
5	760.00000000	71.00000000	76.00000000	7.10000000	0.24000000	0	0	0	2.10710677	2.10710677	0.70000000	0.50000000	0	0.54700210	180.90000000	145.00000000	194.80000000	203.90000000	180.90000000
6	869.50000000	589.00000000	87.00000000	58.90000000	0.45000000	0	0	0	4.17989895	4.17989895	1.10000000	0.70000000	0	0.75693976	202.70000000	168.90000000	215.40000000	226.50000000	202.70000000
7	1250.00000000	369.00000000	125.00000000	36.90000000	0.27000000	0	0	0	2.44852812	2.44852812	1.00000000	0.40000000	0	0.58632301	166.20000000	128.40000000	179.70000000	196.10000000	166.20000000
8	65.00000000	56.50000000	6.50000000	5.70000000	0.34000000	0	0	0	2.93137083	2.93137083	0.70000000	0.70000000	0	0.65795246	199.10000000	164.50000000	213.00000000	218.70000000	199.20000000
9	1124.00000000	297.00000000	112.40000000	29.70000000	0.60000000	0	0	0	3.27279217	3.27279217	1.10000000	0.80000000	0	0.87038930	179.80000000	138.40000000	194.70000000	211.80000000	179.80000000
10	884.00000000	511.50000000	88.40000000	51.20000000	0.81000000	0	0	0	5.01421354	5.01421354	1.50000000	0.70000000	0	1.01554125	184.00000000	146.60000000	197.70000000	211.10000000	184.00000000
11	196.00000000	792.50000000	19.60000000	79.20000000	0.25000000	0	0	0	2.38994948	2.38994948	0.70000000	0.50000000	0	0.55851919	171.10000000	135.60000000	184.10000000	197.90000000	171.20000000
12	188.00000000	87.50000000	18.80000000	8.80000000	0.23000000	0	0	0	3.03847760	3.03847760	0.70000000	0.60000000	0	0.53523723	163.60000000	128.70000000	176.60000000	188.50000000	163.60000000
13	307.50000000	603.50000000	30.80000000	60.40000000	0.20000000	0	0	0	1.90710677	1.90710677	0.70000000	0.40000000	0	0.49827875	182.90000000	145.70000000	195.90000000	213.10000000	182.90000000
14	1202.00000000	378.00000000	120.20000000	37.80000000	0.31000000	0	0	0	2.22426406	2.22426406	0.70000000	0.50000000	0	0.62316776	164.40000000	126.80000000	178.20000000	192.20000000	164.50000000
15	339.00000000	244.50000000	33.90000000	24.50000000	0.39000000	0	0	0	2.56568542	2.56568542	0.90000000	0.50000000	0	0.70467256	159.00000000	124.60000000	171.10000000	187.20000000	159.00000000
16	795.50000000	479.00000000	79.60000000	47.90000000	0.20000000	0	0	0	1.96568542	1.96568542	0.50000000	0.50000000	0	0.50462650	159.00000000	124.50000000	171.30000000	186.40000000	159.00000000
17	452.00000000	182.00000000	45.20000000	18.20000000	0.31000000	0	0	0	2.81421354	2.81421354	0.80000000	0.60000000	0	0.62825493	179.80000000	141.80000000	194.00000000	206.70000000	179.80000000
18	459.50000000	15.50000000	46.00000000	1.60000000	0.34000000	0	0	0	2.67279218	2.67279218	0.70000000	0.70000000	0	0.65309666	180.20000000	145.50000000	193.10000000	204.80000000	180.20000000
19	238.50000000	735.00000000	23.90000000	73.50000000	0.39000000	0	0	0	2.50710677	2.50710677	0.70000000	0.70000000	0	0.70014086	199.70000000	160.60000000	215.20000000	223.90000000	199.80000000
20	14.50000000	254.00000000	1.50000000	25.40000000	0.32000000	0	0	0	2.22426406	2.22426406	0.70000000	0.50000000	0	0.63330124	195.80000000	157.90000000	210.20000000	221.70000000	195.90000000
21	1063.50000000	44.00000000	106.40000000	4.40000000	0.29000000	0	0	0	2.16568542	2.16568542	0.70000000	0.50000000	0	0.60765078	136.80000000	106.50000000	146.90000000	164.20000000	136.80000000
22	131.50000000	154.00000000	13.20000000	15.40000000	0.45000000	0	0	0	3.27279218	3.27279218	0.90000000	0.80000000	0	0.75272279	176.40000000	138.60000000	190.40000000	203.90000000	176.40000000
23	166.00000000	405.50000000	16.60000000	40.60000000	0.40000000	0	0	0	2.78994948	2.78994948	1.10000000	0.50000000	0	0.70917531	191.30000000	154.20000000	205.60000000	215.20000000	191.30000000
24	211.00000000	97.00000000	21.10000000	9.70000000	0.36000000	0	0	0	3.55563489	3.55563489	1.10000000	0.60000000	0	0.67230948	164.30000000	125.10000000	178.00000000	197.10000000	164.40000000
25	586.50000000	561.00000000	58.70000000	56.10000000	0.53000000	0	0	0	4.13137083	4.13137083	1.30000000	0.80000000	0	0.82147243	173.00000000	136.90000000	185.70000000	202.50000000	173.00000000
26	995.00000000	162.50000000	99.50000000	16.20000000	0.98000000	0	0	0	5.37989895	5.37989895	2.10000000	0.90000000	0	1.11703839	161.70000000	120.60000000	175.10000000	200.90000000	161.80000000
27	1088.50000000	14.50000000	108.90000000	1.50000000	0.43000000	0	0	0	4.09705623	4.09705623	1.10000000	0.70000000	0	0.73992770	155.90000000	121.30000000	167.30000000	188.50000000	155.90000000
28	101.50000000	650.00000000	10.20000000	65.00000000	0.20000000	0	0	0	1.90710677	1.90710677	0.50000000	0.50000000	0	0.49827875	143.30000000	112.80000000	154.20000000	167.00000000	143.30000000
29	426.50000000	39.50000000	42.70000000	4.00000000	0.84000000	0	0	0	4.75563489	4.75563489	1.60000000	0.80000000	0	1.03109409	198.30000000	160.20000000	213.10000000	222.00000000	198.30000000
30	38.50000000	331.00000000	3.90000000	33.10000000	0.50000000	0	0	0	3.81421354	3.81421354	1.10000000	0.70000000	0	0.79788456	182.30000000	147.00000000	195.20000000	208.40000000	182.30000000
31	430.00000000	330.50000000	43.00000000	33.10000000	0.86000000	0	0	0	4.63847759	4.63847759	1.80000000	0.70000000	0	1.04336945	188.70000000	146.50000000	204.20000000	220.60000000	188.80000000
32	566.50000000	738.00000000	56.70000000	73.80000000	0.59000000	0	0	0	4.81421354	4.81421354	1.50000000	0.70000000	0	0.86672448	155.70000000	122.00000000	167.00000000	186.20000000	155.70000000
33	280.00000000	334.50000000	28.00000000	33.50000000	0.97000000	0	0	0	6.49705625	6.49705625	2.10000000	0.70000000	0	1.11132460	200.40000000	160.90000000	215.20000000	227.70000000	200.40000000
34	20.00000000	788.00000000	2.00000000	78.80000000	0.29000000	0	0	0	2.64852812	2.64852812	0.80000000	0.60000000	0	0.60765078	162.00000000	127.80000000	172.90000000	194.50000000	161.90000000
35	112.50000000	791.50000000	11.20000000	79.20000000	1.14000000	0	0	0	5.38994948	5.38994948	1.90000000	0.70000000	0	1.20213430	184.20000000	143.50000000	198.50000000	217.50000000	184.20000000
36	580.50000000	11.50000000	58.10000000	1.20000000	0.25000000	0	0	0	1.94142135	1.94142135	0.50000000	0.50000000	0	0.55851919	181.90000000	147.20000000	194.20000000	208.70000000	181.80000000
37	32.00000000	77.50000000	3.20000000	7.80000000	0.65000000	0	0	0	4.75563489	4.75563489	1.30000000	0.70000000	0	0.90622266	189.80000000	156.30000000	202.40000000	212.80000000	189.80000000
38	1204.50000000	167.50000000	120.50000000	16.80000000	1.09000000	0	0	0	7.28700572	7.28700572	2.00000000	0.90000000	0	1.17535735	176.10000000	133.70000000	190.80000000	212.30000000	176.20000000
39	10.00000000	771.50000000	1.00000000	77.20000000	0.38000000	0	0	0	3.67279218	3.67279218	1.00000000	0.70000000	0	0.69098830	185.90000000	147.50000000	199.70000000	214.80000000	185.80000000
40	867.00000000	64.00000000	86.70000000	6.40000000	0.34000000	0	0	0	2.98994948	2.98994948	0.70000000	0.70000000	0	0.65309666	175.40000000	137.50000000	189.20000000	203.80000000	175.40000000
41	189.50000000	35.50000000	18.90000000	3.60000000	0.68000000	0	0	0	3.93137083	3.93137083	1.20000000	0.70000000	0	0.93048530	217.10000000	186.20000000	229.30000000	235.30000000	217.10000000
42	84.00000000	697.50000000	8.40000000	69.80000000	0.83000000	0	0	0	5.77989895	5.77989895	1.80000000	1.00000000	0	1.02800235	143.70000000	112.00000000	154.00000000	173.30000000	143.60000000
43	11.00000000	68.00000000	1.10000000	6.80000000	0.69000000	0	0	0	3.73137083	3.73137083	1.20000000	0.80000000	0	0.93730213	153.70000000	118.70000000	164.40000000	190.50000000	153.70000000
44	413.00000000	839.50000000	41.30000000	84.00000000	0.19000000	0	0	0	1.76568542	1.76568542	0.50000000	0.50000000	0	0.49184908	116.60000000	91.40000000	124.40000000	142.90000000	116.60000000
45	863.50000000	78.00000000	86.40000000	7.80000000	0.11000000	0	0	0	1.64852811	1.64852811	0.50000000	0.40000000	0	0.37424103	168.40000000	134.60000000	180.40000000	193.90000000	168.30000000
46	577.50000000	704.50000000	57.80000000	70.50000000	0.18000000	0	0	0	1.73137082	1.73137082	0.60000000	0.40000000	0	0.47873074	121.10000000	98.10000000	129.80000000	136.00000000	121.00000000
47	559.50000000	11.50000000	56.00000000	1.20000000	0.15000000	0	0	0	1.64852812	1.64852812	0.50000000	0.40000000	0	0.43701937	119.40000000	96.30000000	127.00000000	140.90000000	119.40000000
48	779.00000000	520.00000000	77.90000000	52.00000000	1.55000000	0	0	0	11.38406197	11.38406197	3.70000000	0.80000000	0	1.40255306	158.60000000	123.50000000	170.10000000	191.50000000	158.60000000
49	82.00000000	827.00000000	8.20000000	82.70000000	0.97000000	0	0	0	5.69705623	5.69705623	1.90000000	1.00000000	0	1.11132460	161.10000000	124.30000000	172.60000000	197.80000000	161.00000000
50	191.00000000	504.50000000	19.10000000	50.50000000	0.60000000	0	0	0	4.75563489	4.75563489	1.50000000	0.60000000	0	0.87038930	189.00000000	149.10000000	203.70000000	218.10000000	189.00000000
51	166.00000000	301.00000000	16.60000000	30.10000000	0.90000000	0	0	0	5.88700571	5.88700571	1.80000000	0.90000000	0	1.06749679	144.00000000	110.80000000	154.40000000	177.40000000	144.00000000
52	1260.00000000	444.50000000	126.00000000	44.50000000	0.38000000	0	0	0	2.93137083	2.93137083	1.10000000	0.60000000	0	0.69557963	124.10000000	94.50000000	134.20000000	149.40000000	124.10000000
53	452.00000000	353.00000000	45.20000000	35.30000000	0.72000000	0	0	0	7.19411249	7.19411249	1.60000000	1.00000000	0	0.95746147	154.20000000	118.00000000	166.10000000	188.70000000	154.30000000
54	733.50000000	490.50000000	73.40000000	49.10000000	0.10000000	0	0	0	1.56568542	1.56568542	0.50000000	0.30000000	0	0.35682482	128.60000000	105.90000000	136.90000000	145.20000000	128.60000000
55	1085.00000000	849.00000000	108.50000000	84.90000000	0.13000000	0	0	0	1.42426406	1.42426406	0.50000000	0.30000000	0	0.39894228	93.60000000	74.20000000	101.20000000	105.90000000	93.60000000
56	49.50000000	513.00000000	5.00000000	51.30000000	1.13000000	0	0	0	7.93553383	7.93553383	2.60000000	1.10000000	0	1.19682684	160.50000000	125.80000000	172.20000000	191.10000000	160.50000000
57	526.00000000	713.00000000	52.60000000	71.30000000	0.23000000	0	0	0	1.93137082	1.93137082	0.60000000	0.50000000	0	0.54115164	95.50000000	76.60000000	101.40000000	115.30000000	95.60000000
58	183.50000000	918.50000000	18.40000000	91.90000000	0.55000000	0	0	0	4.17989895	4.17989895	1.30000000	0.70000000	0	0.83682839	82.90000000	63.60000000	87.70000000	108.70000000	82.90000000
59	509.50000000	841.50000000	51.00000000	84.20000000	4.97000000	0	0	0	31.33797233	31.33797233	10.20000000	2.60000000	0	2.51428605	113.40000000	88.60000000	121.60000000	136.20000000	113.40000000

#2
liczenie
obiektów (w)	udział punktów	pole obrazu(mm²)
	189	100.00	12288.0000
nr.	x(pix.):	y(pix.):	x(mm):	y(mm):	powierzchnia:(mm²)	długość:(mm)	szerokość:(mm)	kąt:(°)	obwód:(mm)	obwód C.:(mm)	średnica Fereta H(mm)	średnica Fereta V(mm)	średn. Martina:(mm)	średn. sitowa:(mm)	średnia jaskrawość	R	G	B	Y
1	21.00000000	949.50000000	2.10000000	95.00000000	0.46000000	0.00000000	0.00000000	0.00000000	3.55563488	3.55563488	0.90000000	0.80000000	0.00000000	0.76113336	143.50000000	107.40000000	153.60000000	185.90000000	143.50000000
2	401.00000000	505.00000000	40.10000000	50.50000000	0.23000000	0.00000000	0.00000000	0.00000000	1.90710677	1.90710677	0.60000000	0.50000000	0.00000000	0.53523723	148.70000000	114.00000000	160.10000000	180.90000000	148.70000000
3	210.50000000	73.50000000	21.10000000	7.40000000	0.25000000	0.00000000	0.00000000	0.00000000	2.53137082	2.53137082	0.70000000	0.60000000	0.00000000	0.56418958	173.10000000	130.80000000	187.90000000	208.20000000	173.10000000
4	1104.00000000	311.50000000	110.40000000	31.20000000	0.26000000	0.00000000	0.00000000	0.00000000	3.47279218	3.47279218	0.70000000	0.70000000	0.00000000	0.56980355	123.50000000	90.00000000	133.00000000	162.70000000	123.50000000
5	297.50000000	830.50000000	29.80000000	83.10000000	0.21000000	0.00000000	0.00000000	0.00000000	2.04852811	2.04852811	0.60000000	0.50000000	0.00000000	0.51708829	154.10000000	115.40000000	167.10000000	189.60000000	154.20000000
6	436.00000000	896.00000000	43.60000000	89.60000000	0.30000000	0.00000000	0.00000000	0.00000000	2.81421353	2.81421353	0.70000000	0.70000000	0.00000000	0.61803872	147.60000000	110.20000000	158.40000000	190.50000000	147.70000000
7	293.50000000	519.00000000	29.40000000	51.90000000	0.49000000	0.00000000	0.00000000	0.00000000	3.81421354	3.81421354	1.10000000	0.70000000	0.00000000	0.78986542	175.50000000	133.30000000	190.10000000	211.00000000	175.50000000
8	809.50000000	682.00000000	81.00000000	68.20000000	0.60000000	0.00000000	0.00000000	0.00000000	3.56568542	3.56568542	1.30000000	0.60000000	0.00000000	0.87403874	175.80000000	128.60000000	191.40000000	220.00000000	175.90000000
9	124.00000000	784.50000000	12.40000000	78.50000000	0.54000000	0.00000000	0.00000000	0.00000000	3.07279218	3.07279218	1.00000000	0.70000000	0.00000000	0.82533821	138.20000000	98.10000000	150.60000000	180.00000000	138.20000000
10	834.00000000	497.50000000	83.40000000	49.80000000	0.17000000	0.00000000	0.00000000	0.00000000	1.58994946	1.58994946	0.50000000	0.40000000	0.00000000	0.45834978	160.60000000	119.10000000	174.00000000	200.50000000	160.60000000
11	1090.50000000	825.50000000	109.10000000	82.60000000	0.51000000	0.00000000	0.00000000	0.00000000	3.41421354	3.41421354	1.10000000	0.70000000	0.00000000	0.80582391	124.30000000	87.90000000	134.00000000	170.40000000	124.40000000
12	1103.00000000	346.50000000	110.30000000	34.60000000	0.42000000	0.00000000	0.00000000	0.00000000	2.64852812	2.64852812	0.90000000	0.60000000	0.00000000	0.73127328	137.40000000	97.90000000	148.40000000	184.60000000	137.40000000
13	954.50000000	815.00000000	95.50000000	81.50000000	0.39000000	0.00000000	0.00000000	0.00000000	3.15563489	3.15563489	0.90000000	0.70000000	0.00000000	0.70014086	135.50000000	98.50000000	145.80000000	179.80000000	135.60000000
14	853.00000000	196.00000000	85.30000000	19.60000000	0.76000000	0.00000000	0.00000000	0.00000000	5.83847760	5.83847760	1.70000000	0.90000000	0.00000000	0.98045696	153.30000000	109.80000000	166.70000000	198.00000000	153.30000000
15	368.50000000	458.50000000	36.90000000	45.90000000	0.33000000	0.00000000	0.00000000	0.00000000	2.24852812	2.24852812	0.70000000	0.60000000	0.00000000	0.64820448	160.20000000	118.80000000	174.50000000	195.20000000	160.20000000
16	1067.00000000	618.00000000	106.70000000	61.80000000	0.23000000	0.00000000	0.00000000	0.00000000	1.88284271	1.88284271	0.50000000	0.50000000	0.00000000	0.54115164	166.50000000	124.90000000	180.20000000	204.50000000	166.50000000
17	111.00000000	165.00000000	11.10000000	16.50000000	0.36000000	0.00000000	0.00000000	0.00000000	2.56568542	2.56568542	0.90000000	0.50000000	0.00000000	0.67702750	168.90000000	127.90000000	183.20000000	203.00000000	168.90000000
18	581.50000000	79.50000000	58.20000000	8.00000000	0.50000000	0.00000000	0.00000000	0.00000000	3.27279217	3.27279217	1.10000000	0.70000000	0.00000000	0.79388511	177.90000000	133.90000000	193.50000000	212.60000000	177.90000000
19	119.00000000	309.00000000	11.90000000	30.90000000	0.46000000	0.00000000	0.00000000	0.00000000	3.35563489	3.35563489	1.00000000	0.70000000	0.00000000	0.76113336	150.60000000	109.10000000	164.10000000	190.00000000	150.60000000
20	514.50000000	269.00000000	51.50000000	26.90000000	0.40000000	0.00000000	0.00000000	0.00000000	3.18994948	3.18994948	1.10000000	0.50000000	0.00000000	0.70917531	173.30000000	129.20000000	188.70000000	209.30000000	173.30000000
21	957.50000000	461.00000000	95.80000000	46.10000000	0.37000000	0.00000000	0.00000000	0.00000000	3.18994948	3.18994948	1.00000000	0.50000000	0.00000000	0.68171287	169.50000000	125.90000000	183.90000000	210.20000000	169.60000000
22	1166.00000000	337.50000000	116.60000000	33.80000000	0.50000000	0.00000000	0.00000000	0.00000000	2.93137083	2.93137083	0.90000000	0.70000000	0.00000000	0.79788456	173.70000000	128.50000000	189.00000000	213.40000000	173.70000000
23	644.00000000	710.50000000	64.40000000	71.00000000	0.35000000	0.00000000	0.00000000	0.00000000	2.78994948	2.78994948	0.70000000	0.70000000	0.00000000	0.66277269	182.10000000	136.10000000	199.40000000	214.40000000	182.20000000
24	511.50000000	151.00000000	51.20000000	15.10000000	0.46000000	0.00000000	0.00000000	0.00000000	2.98994946	2.98994946	1.10000000	0.50000000	0.00000000	0.76113336	173.60000000	130.40000000	188.70000000	209.60000000	173.70000000
25	469.50000000	196.00000000	47.00000000	19.60000000	0.65000000	0.00000000	0.00000000	0.00000000	3.69705625	3.69705625	1.10000000	0.80000000	0.00000000	0.90972837	165.20000000	121.80000000	179.90000000	203.00000000	165.20000000
26	694.00000000	566.00000000	69.40000000	56.60000000	0.28000000	0.00000000	0.00000000	0.00000000	2.18994948	2.18994948	0.70000000	0.50000000	0.00000000	0.59172703	180.60000000	136.30000000	196.60000000	214.10000000	180.60000000
27	592.00000000	283.00000000	59.20000000	28.30000000	0.57000000	0.00000000	0.00000000	0.00000000	2.90710677	2.90710677	0.90000000	0.70000000	0.00000000	0.84816292	203.60000000	162.40000000	219.10000000	231.80000000	203.60000000
28	516.50000000	413.00000000	51.70000000	41.30000000	0.63000000	0.00000000	0.00000000	0.00000000	4.41421354	4.41421354	1.30000000	0.70000000	0.00000000	0.89562320	184.10000000	140.90000000	200.00000000	214.60000000	184.00000000
29	188.00000000	302.00000000	18.80000000	30.20000000	0.69000000	0.00000000	0.00000000	0.00000000	4.63847760	4.63847760	1.40000000	0.80000000	0.00000000	0.93389993	173.40000000	127.60000000	189.30000000	212.00000000	173.40000000
30	763.50000000	290.00000000	76.40000000	29.00000000	0.38000000	0.00000000	0.00000000	0.00000000	3.41421354	3.41421354	0.90000000	0.70000000	0.00000000	0.69557963	170.50000000	127.10000000	185.30000000	208.40000000	170.50000000
31	1254.00000000	228.50000000	125.40000000	22.90000000	0.58000000	0.00000000	0.00000000	0.00000000	4.01421354	4.01421354	1.30000000	0.70000000	0.00000000	0.85934797	142.00000000	101.40000000	153.90000000	187.40000000	142.00000000
32	712.50000000	415.50000000	71.20000000	41.60000000	0.16000000	0.00000000	0.00000000	0.00000000	1.90710677	1.90710677	0.50000000	0.50000000	0.00000000	0.44424332	128.40000000	94.70000000	138.80000000	162.70000000	128.30000000
33	1164.50000000	894.50000000	116.50000000	89.50000000	0.47000000	0.00000000	0.00000000	0.00000000	2.73137082	2.73137082	0.90000000	0.70000000	0.00000000	0.77357778	125.00000000	88.30000000	134.40000000	173.50000000	125.00000000
34	1098.00000000	521.00000000	109.80000000	52.10000000	0.36000000	0.00000000	0.00000000	0.00000000	3.41421354	3.41421354	0.80000000	0.80000000	0.00000000	0.67702750	147.40000000	106.30000000	159.50000000	192.90000000	147.40000000
35	382.00000000	383.50000000	38.20000000	38.40000000	0.12000000	0.00000000	0.00000000	0.00000000	1.73137082	1.73137082	0.50000000	0.40000000	0.00000000	0.39088201	160.70000000	124.80000000	172.30000000	195.70000000	160.80000000
36	480.50000000	712.00000000	48.10000000	71.20000000	0.64000000	0.00000000	0.00000000	0.00000000	5.57989895	5.57989895	1.60000000	0.70000000	0.00000000	0.90270333	172.90000000	127.90000000	188.20000000	211.90000000	172.90000000
37	282.00000000	81.50000000	28.20000000	8.20000000	0.64000000	0.00000000	0.00000000	0.00000000	3.50710677	3.50710677	1.10000000	0.70000000	0.00000000	0.89917023	182.60000000	134.60000000	200.30000000	217.30000000	182.60000000
38	192.50000000	700.00000000	19.20000000	70.00000000	0.40000000	0.00000000	0.00000000	0.00000000	2.70710677	2.70710677	0.90000000	0.50000000	0.00000000	0.70917531	184.60000000	139.50000000	200.60000000	220.80000000	184.70000000
39	1031.00000000	717.50000000	103.10000000	71.80000000	1.05000000	0.00000000	0.00000000	0.00000000	5.92132031	5.92132031	1.90000000	0.80000000	0.00000000	1.15348833	153.00000000	107.80000000	166.80000000	200.40000000	153.00000000
40	1015.00000000	607.00000000	101.50000000	60.70000000	0.32000000	0.00000000	0.00000000	0.00000000	2.16568542	2.16568542	0.70000000	0.50000000	0.00000000	0.63830765	157.90000000	116.20000000	170.60000000	202.00000000	157.90000000
41	966.50000000	247.50000000	96.70000000	24.80000000	0.58000000	0.00000000	0.00000000	0.00000000	4.29705625	4.29705625	1.10000000	0.90000000	0.00000000	0.85934797	165.60000000	122.00000000	180.10000000	204.90000000	165.60000000
42	353.00000000	189.50000000	35.30000000	18.90000000	0.19000000	0.00000000	0.00000000	0.00000000	1.70710677	1.70710677	0.50000000	0.50000000	0.00000000	0.48533423	145.90000000	110.80000000	156.90000000	181.20000000	145.90000000
43	332.00000000	418.00000000	33.20000000	41.80000000	0.33000000	0.00000000	0.00000000	0.00000000	2.73137083	2.73137083	0.70000000	0.70000000	0.00000000	0.64820448	168.20000000	125.30000000	183.10000000	203.50000000	168.20000000
44	832.00000000	355.50000000	83.20000000	35.60000000	0.21000000	0.00000000	0.00000000	0.00000000	2.15563489	2.15563489	0.60000000	0.50000000	0.00000000	0.51089540	151.90000000	112.90000000	164.30000000	190.40000000	151.90000000
45	949.00000000	651.00000000	94.90000000	65.10000000	0.40000000	0.00000000	0.00000000	0.00000000	3.35563489	3.35563489	0.90000000	0.60000000	0.00000000	0.70917531	161.00000000	119.20000000	174.10000000	203.00000000	161.00000000
46	1052.50000000	441.50000000	105.20000000	44.20000000	0.33000000	0.00000000	0.00000000	0.00000000	2.30710677	2.30710677	0.80000000	0.50000000	0.00000000	0.64327510	187.00000000	137.70000000	204.30000000	227.00000000	187.00000000
47	983.00000000	203.50000000	98.30000000	20.40000000	0.26000000	0.00000000	0.00000000	0.00000000	2.33137082	2.33137082	0.70000000	0.60000000	0.00000000	0.57536274	135.50000000	96.90000000	146.10000000	182.50000000	135.50000000
48	576.50000000	371.50000000	57.70000000	37.10000000	0.19000000	0.00000000	0.00000000	0.00000000	1.76568542	1.76568542	0.50000000	0.50000000	0.00000000	0.49184908	147.60000000	112.00000000	159.00000000	182.20000000	147.60000000
49	1091.50000000	155.00000000	109.20000000	15.50000000	0.36000000	0.00000000	0.00000000	0.00000000	2.56568542	2.56568542	0.70000000	0.70000000	0.00000000	0.67702750	140.40000000	101.40000000	152.00000000	183.40000000	140.40000000
50	908.50000000	907.50000000	90.90000000	90.80000000	0.47000000	0.00000000	0.00000000	0.00000000	3.12132031	3.12132031	0.80000000	0.70000000	0.00000000	0.76945201	175.00000000	131.80000000	190.30000000	209.80000000	175.00000000
51	918.50000000	274.50000000	91.90000000	27.50000000	0.68000000	0.00000000	0.00000000	0.00000000	4.27279218	4.27279218	1.30000000	0.80000000	0.00000000	0.92705808	166.80000000	122.40000000	181.50000000	207.10000000	166.80000000
52	97.50000000	213.50000000	9.80000000	21.40000000	0.32000000	0.00000000	0.00000000	0.00000000	2.67279217	2.67279217	0.70000000	0.60000000	0.00000000	0.63330124	120.60000000	88.60000000	130.10000000	155.70000000	120.60000000
53	698.50000000	183.00000000	69.90000000	18.30000000	0.27000000	0.00000000	0.00000000	0.00000000	2.89705623	2.89705623	0.90000000	0.50000000	0.00000000	0.58632301	177.60000000	131.90000000	193.30000000	216.50000000	177.60000000
54	255.00000000	238.50000000	25.50000000	23.90000000	0.32000000	0.00000000	0.00000000	0.00000000	2.24852812	2.24852812	0.80000000	0.50000000	0.00000000	0.63830765	169.10000000	126.70000000	183.70000000	205.80000000	169.20000000
55	1124.00000000	31.00000000	112.40000000	3.10000000	0.57000000	0.00000000	0.00000000	0.00000000	3.41421354	3.41421354	0.90000000	0.90000000	0.00000000	0.85190759	198.80000000	158.10000000	214.60000000	224.50000000	198.80000000
56	1264.00000000	361.00000000	126.40000000	36.10000000	0.52000000	0.00000000	0.00000000	0.00000000	3.63847760	3.63847760	1.10000000	0.70000000	0.00000000	0.80976439	138.10000000	97.90000000	149.40000000	185.40000000	138.10000000
57	1168.00000000	23.50000000	116.80000000	2.40000000	0.21000000	0.00000000	0.00000000	0.00000000	2.69705623	2.69705623	0.70000000	0.60000000	0.00000000	0.51708829	109.10000000	81.90000000	115.80000000	145.20000000	109.00000000
58	60.00000000	528.50000000	6.00000000	52.90000000	1.08000000	0.00000000	0.00000000	0.00000000	5.40416301	5.40416301	2.00000000	0.80000000	0.00000000	1.16992842	161.70000000	120.70000000	174.80000000	201.50000000	161.70000000
59	746.00000000	896.50000000	74.60000000	89.70000000	0.42000000	0.00000000	0.00000000	0.00000000	2.87279218	2.87279218	0.80000000	0.70000000	0.00000000	0.72690743	165.10000000	121.70000000	179.00000000	207.20000000	165.10000000
60	146.50000000	197.00000000	14.70000000	19.70000000	0.66000000	0.00000000	0.00000000	0.00000000	5.12132030	5.12132030	1.60000000	0.80000000	0.00000000	0.91322062	167.90000000	122.60000000	182.80000000	210.20000000	167.90000000
61	1108.50000000	646.50000000	110.90000000	64.70000000	0.37000000	0.00000000	0.00000000	0.00000000	3.38994948	3.38994948	0.80000000	0.70000000	0.00000000	0.68171287	152.00000000	109.50000000	164.50000000	198.80000000	152.00000000
62	566.00000000	239.50000000	56.60000000	24.00000000	0.91000000	0.00000000	0.00000000	0.00000000	5.06274166	5.06274166	1.70000000	0.90000000	0.00000000	1.07640512	159.00000000	116.20000000	172.50000000	201.40000000	159.00000000
63	976.00000000	915.00000000	97.60000000	91.50000000	1.10000000	0.00000000	0.00000000	0.00000000	5.96984842	5.96984842	1.90000000	1.00000000	0.00000000	1.18076132	125.30000000	89.60000000	135.00000000	169.60000000	125.30000000
64	434.50000000	837.00000000	43.50000000	83.70000000	0.24000000	0.00000000	0.00000000	0.00000000	2.87279218	2.87279218	0.60000000	0.60000000	0.00000000	0.54700210	158.80000000	122.60000000	170.80000000	192.50000000	158.90000000
65	949.50000000	229.00000000	95.00000000	22.90000000	0.27000000	0.00000000	0.00000000	0.00000000	2.67279218	2.67279218	0.70000000	0.70000000	0.00000000	0.58086873	148.20000000	109.50000000	160.40000000	187.30000000	148.20000000
66	328.00000000	651.50000000	32.80000000	65.20000000	0.27000000	0.00000000	0.00000000	0.00000000	2.04852812	2.04852812	0.70000000	0.50000000	0.00000000	0.58632301	120.70000000	90.80000000	130.30000000	149.80000000	120.70000000
67	684.00000000	864.50000000	68.40000000	86.50000000	0.82000000	0.00000000	0.00000000	0.00000000	5.57989895	5.57989895	1.30000000	1.00000000	0.00000000	1.02179079	199.10000000	154.70000000	216.30000000	227.50000000	199.20000000
68	484.00000000	518.00000000	48.40000000	51.80000000	0.67000000	0.00000000	0.00000000	0.00000000	3.53137083	3.53137083	1.30000000	0.70000000	0.00000000	0.92361815	190.20000000	142.50000000	208.30000000	222.50000000	190.20000000
69	802.50000000	252.00000000	80.20000000	25.20000000	0.17000000	0.00000000	0.00000000	0.00000000	1.58994946	1.58994946	0.50000000	0.40000000	0.00000000	0.45834978	167.30000000	125.50000000	180.50000000	209.50000000	167.40000000
70	540.00000000	302.00000000	54.00000000	30.20000000	0.19000000	0.00000000	0.00000000	0.00000000	2.04852812	2.04852812	0.60000000	0.50000000	0.00000000	0.49184908	136.60000000	102.20000000	147.90000000	168.50000000	136.60000000
71	879.50000000	828.00000000	88.00000000	82.80000000	0.45000000	0.00000000	0.00000000	0.00000000	3.55563489	3.55563489	0.90000000	0.80000000	0.00000000	0.75272279	192.90000000	148.00000000	209.40000000	225.20000000	192.80000000
72	412.50000000	802.50000000	41.20000000	80.20000000	0.36000000	0.00000000	0.00000000	0.00000000	2.98994948	2.98994948	0.90000000	0.60000000	0.00000000	0.67230948	156.30000000	115.30000000	169.00000000	198.50000000	156.30000000
73	69.00000000	326.00000000	6.90000000	32.60000000	0.24000000	0.00000000	0.00000000	0.00000000	2.38994948	2.38994948	0.70000000	0.50000000	0.00000000	0.54700210	132.50000000	101.30000000	142.30000000	164.00000000	132.50000000
74	609.50000000	609.50000000	61.00000000	61.00000000	0.79000000	0.00000000	0.00000000	0.00000000	5.43847760	5.43847760	1.60000000	0.90000000	0.00000000	0.99974649	162.10000000	118.90000000	176.60000000	200.80000000	162.10000000
75	421.00000000	744.50000000	42.10000000	74.50000000	0.98000000	0.00000000	0.00000000	0.00000000	4.97989895	4.97989895	1.80000000	0.90000000	0.00000000	1.11703839	144.70000000	103.00000000	157.20000000	189.60000000	144.70000000
76	742.00000000	273.00000000	74.20000000	27.30000000	0.60000000	0.00000000	0.00000000	0.00000000	4.44852812	4.44852812	1.30000000	0.70000000	0.00000000	0.87403874	176.50000000	131.00000000	191.60000000	218.50000000	176.50000000
77	526.50000000	622.00000000	52.70000000	62.20000000	0.46000000	0.00000000	0.00000000	0.00000000	3.44852812	3.44852812	0.90000000	0.70000000	0.00000000	0.76530399	162.50000000	119.50000000	176.60000000	203.30000000	162.50000000
78	1232.00000000	451.50000000	123.20000000	45.20000000	0.43000000	0.00000000	0.00000000	0.00000000	4.01421354	4.01421354	1.10000000	0.70000000	0.00000000	0.73992770	129.30000000	93.30000000	139.10000000	173.40000000	129.30000000
79	172.00000000	813.00000000	17.20000000	81.30000000	0.63000000	0.00000000	0.00000000	0.00000000	4.17989895	4.17989895	1.40000000	0.70000000	0.00000000	0.89562320	124.10000000	88.80000000	134.20000000	164.20000000	124.10000000
80	670.00000000	383.00000000	67.00000000	38.30000000	0.21000000	0.00000000	0.00000000	0.00000000	2.04852812	2.04852812	0.60000000	0.50000000	0.00000000	0.51708829	158.00000000	119.60000000	170.70000000	192.60000000	158.00000000
81	1037.00000000	550.00000000	103.70000000	55.00000000	0.67000000	0.00000000	0.00000000	0.00000000	5.00416301	5.00416301	1.40000000	0.80000000	0.00000000	0.92016536	160.20000000	117.30000000	173.90000000	202.80000000	160.30000000
82	940.00000000	614.00000000	94.00000000	61.40000000	0.36000000	0.00000000	0.00000000	0.00000000	4.33137083	4.33137083	0.90000000	0.70000000	0.00000000	0.67702750	151.20000000	112.50000000	162.90000000	192.90000000	151.30000000
83	90.50000000	813.00000000	9.10000000	81.30000000	0.65000000	0.00000000	0.00000000	0.00000000	4.89705625	4.89705625	1.10000000	0.90000000	0.00000000	0.90972837	116.30000000	84.70000000	125.90000000	149.90000000	116.30000000
84	675.00000000	442.50000000	67.50000000	44.20000000	0.85000000	0.00000000	0.00000000	0.00000000	5.77989895	5.77989895	1.80000000	0.80000000	0.00000000	1.04031419	167.90000000	123.50000000	182.70000000	208.70000000	167.90000000
85	1139.50000000	474.00000000	114.00000000	47.40000000	1.18000000	0.00000000	0.00000000	0.00000000	5.08700571	5.08700571	2.00000000	0.80000000	0.00000000	1.22313387	162.70000000	119.20000000	176.20000000	207.40000000	162.70000000
86	1071.50000000	100.00000000	107.20000000	10.00000000	1.83000000	0.00000000	0.00000000	0.00000000	6.43847760	6.43847760	1.80000000	1.30000000	0.00000000	1.52435631	166.70000000	120.50000000	181.30000000	213.20000000	166.70000000
87	268.50000000	712.00000000	26.90000000	71.20000000	0.22000000	0.00000000	0.00000000	0.00000000	3.41421354	3.41421354	0.70000000	0.70000000	0.00000000	0.52925674	115.10000000	86.90000000	123.90000000	143.50000000	115.00000000
88	860.50000000	734.50000000	86.10000000	73.50000000	0.17000000	0.00000000	0.00000000	0.00000000	2.10710677	2.10710677	0.50000000	0.50000000	0.00000000	0.45834978	118.00000000	87.40000000	126.90000000	152.50000000	118.00000000
89	1254.50000000	12.50000000	125.50000000	1.20000000	0.48000000	0.00000000	0.00000000	0.00000000	3.81421354	3.81421354	0.90000000	0.90000000	0.00000000	0.78176402	166.80000000	126.30000000	180.20000000	203.70000000	166.80000000
90	355.00000000	728.50000000	35.50000000	72.90000000	0.63000000	0.00000000	0.00000000	0.00000000	3.53137083	3.53137083	1.10000000	0.70000000	0.00000000	0.89562320	210.90000000	173.00000000	225.70000000	234.60000000	211.00000000
91	1208.00000000	661.50000000	120.80000000	66.20000000	0.29000000	0.00000000	0.00000000	0.00000000	2.30710677	2.30710677	0.70000000	0.50000000	0.00000000	0.60238963	131.00000000	95.50000000	140.20000000	177.10000000	131.10000000
92	1224.50000000	396.00000000	122.50000000	39.60000000	0.87000000	0.00000000	0.00000000	0.00000000	4.67279218	4.67279218	1.60000000	0.80000000	0.00000000	1.04945329	157.10000000	113.70000000	170.00000000	204.70000000	157.10000000
93	1017.00000000	697.00000000	101.70000000	69.70000000	0.32000000	0.00000000	0.00000000	0.00000000	2.24852812	2.24852812	0.70000000	0.60000000	0.00000000	0.63830765	144.40000000	102.80000000	156.30000000	192.60000000	144.50000000
94	1161.50000000	802.00000000	116.20000000	80.20000000	0.36000000	0.00000000	0.00000000	0.00000000	3.23847760	3.23847760	0.80000000	0.70000000	0.00000000	0.67230948	109.10000000	78.40000000	117.10000000	148.00000000	109.10000000
95	24.00000000	883.50000000	2.40000000	88.40000000	0.44000000	0.00000000	0.00000000	0.00000000	2.56568542	2.56568542	0.70000000	0.70000000	0.00000000	0.74848206	130.70000000	100.60000000	139.40000000	165.10000000	130.70000000
96	346.50000000	603.50000000	34.60000000	60.40000000	0.30000000	0.00000000	0.00000000	0.00000000	2.56568542	2.56568542	0.70000000	0.50000000	0.00000000	0.61803872	133.90000000	105.20000000	144.70000000	154.10000000	133.90000000
97	771.50000000	442.00000000	77.20000000	44.20000000	0.22000000	0.00000000	0.00000000	0.00000000	1.76568542	1.76568542	0.50000000	0.50000000	0.00000000	0.52925674	124.70000000	94.50000000	133.60000000	157.70000000	124.60000000
98	1268.00000000	419.50000000	126.80000000	42.00000000	0.61000000	0.00000000	0.00000000	0.00000000	3.87279218	3.87279218	1.30000000	0.70000000	0.00000000	0.87767302	140.00000000	101.20000000	150.70000000	186.60000000	140.00000000
99	638.50000000	659.00000000	63.90000000	65.90000000	0.31000000	0.00000000	0.00000000	0.00000000	2.84852812	2.84852812	0.70000000	0.70000000	0.00000000	0.62825493	173.60000000	129.90000000	189.40000000	206.40000000	173.60000000
100	103.50000000	635.50000000	10.40000000	63.60000000	1.24000000	0.00000000	0.00000000	0.00000000	6.71126978	6.71126978	2.10000000	1.10000000	0.00000000	1.25650986	149.20000000	109.40000000	161.60000000	189.90000000	149.20000000
101	1084.50000000	742.00000000	108.50000000	74.20000000	0.65000000	0.00000000	0.00000000	0.00000000	3.67279218	3.67279218	0.90000000	0.90000000	0.00000000	0.90622266	168.20000000	125.00000000	182.30000000	209.10000000	168.20000000
102	556.00000000	798.00000000	55.60000000	79.80000000	0.21000000	0.00000000	0.00000000	0.00000000	2.04852812	2.04852812	0.60000000	0.50000000	0.00000000	0.51708829	162.40000000	122.90000000	175.40000000	199.00000000	162.40000000
103	593.00000000	683.50000000	59.30000000	68.40000000	0.26000000	0.00000000	0.00000000	0.00000000	2.67279217	2.67279217	0.90000000	0.50000000	0.00000000	0.56980355	171.20000000	129.40000000	185.40000000	207.50000000	171.20000000
104	116.00000000	395.00000000	11.60000000	39.50000000	0.61000000	0.00000000	0.00000000	0.00000000	4.09705623	4.09705623	1.00000000	0.90000000	0.00000000	0.88129230	212.20000000	175.60000000	226.90000000	231.90000000	212.10000000
105	1120.00000000	117.50000000	112.00000000	11.80000000	0.36000000	0.00000000	0.00000000	0.00000000	3.13137083	3.13137083	0.80000000	0.70000000	0.00000000	0.67702750	145.00000000	103.90000000	157.10000000	190.10000000	145.00000000
106	1056.00000000	8.50000000	105.60000000	0.90000000	0.21000000	0.00000000	0.00000000	0.00000000	1.82426406	1.82426406	0.50000000	0.50000000	0.00000000	0.51089540	147.90000000	107.50000000	158.90000000	197.30000000	147.90000000
107	16.50000000	294.00000000	1.70000000	29.40000000	0.95000000	0.00000000	0.00000000	0.00000000	6.72132031	6.72132031	2.10000000	0.80000000	0.00000000	1.09690992	155.70000000	118.70000000	167.10000000	193.90000000	155.70000000
108	647.00000000	599.50000000	64.70000000	60.00000000	0.33000000	0.00000000	0.00000000	0.00000000	2.58994948	2.58994948	0.70000000	0.70000000	0.00000000	0.64327510	179.20000000	136.10000000	194.80000000	211.80000000	179.20000000
109	1144.50000000	764.00000000	114.50000000	76.40000000	0.56000000	0.00000000	0.00000000	0.00000000	3.87279218	3.87279218	1.20000000	0.70000000	0.00000000	0.84062355	155.00000000	110.00000000	168.30000000	204.80000000	155.00000000
110	1069.00000000	382.50000000	106.90000000	38.20000000	1.41000000	0.00000000	0.00000000	0.00000000	7.57989895	7.57989895	2.30000000	1.10000000	0.00000000	1.33987602	156.10000000	111.60000000	169.60000000	203.10000000	156.10000000
111	1268.50000000	559.50000000	126.90000000	56.00000000	0.48000000	0.00000000	0.00000000	0.00000000	2.93137083	2.93137083	0.90000000	0.80000000	0.00000000	0.78176402	125.20000000	88.20000000	134.70000000	174.00000000	125.30000000
112	880.00000000	791.00000000	88.00000000	79.10000000	0.35000000	0.00000000	0.00000000	0.00000000	2.95563489	2.95563489	0.80000000	0.70000000	0.00000000	0.66277269	113.80000000	82.00000000	123.00000000	150.00000000	113.80000000
113	323.00000000	230.00000000	32.30000000	23.00000000	0.16000000	0.00000000	0.00000000	0.00000000	1.76568542	1.76568542	0.50000000	0.40000000	0.00000000	0.45135167	130.60000000	99.90000000	140.90000000	158.20000000	130.60000000
114	741.50000000	368.50000000	74.20000000	36.90000000	0.31000000	0.00000000	0.00000000	0.00000000	3.37989895	3.37989895	1.00000000	0.60000000	0.00000000	0.62825493	174.40000000	130.90000000	189.50000000	211.40000000	174.50000000
115	701.50000000	131.50000000	70.20000000	13.20000000	0.67000000	0.00000000	0.00000000	0.00000000	4.03847760	4.03847760	1.40000000	0.70000000	0.00000000	0.92016536	183.30000000	140.50000000	198.20000000	218.50000000	183.30000000
116	1201.50000000	933.50000000	120.20000000	93.40000000	0.62000000	0.00000000	0.00000000	0.00000000	5.12132031	5.12132031	1.10000000	0.90000000	0.00000000	0.88489678	97.80000000	68.10000000	105.40000000	136.60000000	97.80000000
117	725.00000000	234.50000000	72.50000000	23.50000000	0.23000000	0.00000000	0.00000000	0.00000000	1.88284271	1.88284271	0.50000000	0.50000000	0.00000000	0.54115164	187.50000000	143.40000000	203.00000000	223.10000000	187.50000000
118	131.50000000	601.00000000	13.20000000	60.10000000	0.91000000	0.00000000	0.00000000	0.00000000	4.35563489	4.35563489	1.60000000	0.80000000	0.00000000	1.07344389	181.70000000	136.80000000	198.30000000	214.60000000	181.70000000
119	501.00000000	503.00000000	50.10000000	50.30000000	0.83000000	0.00000000	0.00000000	0.00000000	5.55563489	5.55563489	2.00000000	0.70000000	0.00000000	1.02490128	169.90000000	123.40000000	185.30000000	212.90000000	169.90000000
120	190.50000000	953.50000000	19.10000000	95.40000000	0.18000000	0.00000000	0.00000000	0.00000000	2.04852811	2.04852811	0.80000000	0.30000000	0.00000000	0.47873074	138.50000000	102.60000000	147.20000000	188.00000000	138.50000000
121	59.50000000	44.50000000	6.00000000	4.50000000	0.76000000	0.00000000	0.00000000	0.00000000	4.18994948	4.18994948	1.50000000	0.70000000	0.00000000	0.98045696	177.40000000	133.20000000	193.00000000	212.50000000	177.40000000
122	1152.50000000	538.50000000	115.20000000	53.90000000	1.29000000	0.00000000	0.00000000	0.00000000	6.32132031	6.32132031	2.10000000	1.00000000	0.00000000	1.27910626	152.30000000	107.50000000	165.40000000	202.40000000	152.30000000
123	941.50000000	940.50000000	94.20000000	94.10000000	1.12000000	0.00000000	0.00000000	0.00000000	10.31126978	10.31126978	2.40000000	1.10000000	0.00000000	1.19416426	152.00000000	109.00000000	164.70000000	199.40000000	152.00000000
124	1136.50000000	780.50000000	113.70000000	78.10000000	0.51000000	0.00000000	0.00000000	0.00000000	2.93137083	2.93137083	1.00000000	0.70000000	0.00000000	0.80582391	151.00000000	108.90000000	163.40000000	198.10000000	151.10000000
125	1200.50000000	588.00000000	120.10000000	58.80000000	0.69000000	0.00000000	0.00000000	0.00000000	4.03847760	4.03847760	1.30000000	0.80000000	0.00000000	0.93389993	121.90000000	86.00000000	131.40000000	166.90000000	121.90000000
126	1208.50000000	682.50000000	120.90000000	68.20000000	0.22000000	0.00000000	0.00000000	0.00000000	1.76568542	1.76568542	0.50000000	0.50000000	0.00000000	0.52925674	136.20000000	99.40000000	145.80000000	182.80000000	136.20000000
127	980.00000000	610.50000000	98.00000000	61.10000000	1.81000000	0.00000000	0.00000000	0.00000000	8.51126978	8.51126978	2.10000000	1.50000000	0.00000000	1.51807891	193.90000000	148.20000000	210.60000000	227.60000000	193.90000000
128	1167.50000000	672.00000000	116.80000000	67.20000000	0.61000000	0.00000000	0.00000000	0.00000000	3.47279218	3.47279218	1.30000000	0.70000000	0.00000000	0.87767302	133.90000000	95.30000000	145.00000000	178.00000000	133.90000000
129	7.50000000	763.50000000	0.80000000	76.40000000	0.37000000	1.38108711	0.50000000	169.41000000	3.30710677	6.23845062	1.30000000	0.40000000	1.40000000	0.68171287	146.80000000	100.90000000	157.30000000	213.00000000	146.80000000
130	1270.00000000	924.00000000	127.00000000	92.40000000	0.47000000	0.00000000	0.00000000	0.00000000	4.52132031	4.52132031	0.90000000	0.90000000	0.00000000	0.76945201	97.80000000	68.60000000	104.60000000	139.90000000	97.90000000
131	439.00000000	388.00000000	43.90000000	38.80000000	0.14000000	0.00000000	0.00000000	0.00000000	1.56568542	1.56568542	0.50000000	0.40000000	0.00000000	0.42220082	117.10000000	89.20000000	126.50000000	142.20000000	117.10000000
132	657.50000000	579.50000000	65.80000000	58.00000000	0.88000000	0.00000000	0.00000000	0.00000000	4.83847759	4.83847759	1.70000000	0.90000000	0.00000000	1.05550206	162.30000000	119.90000000	175.70000000	204.50000000	162.30000000
133	1097.50000000	128.00000000	109.80000000	12.80000000	0.41000000	0.00000000	0.00000000	0.00000000	3.04852812	3.04852812	0.90000000	0.70000000	0.00000000	0.72251520	155.70000000	112.40000000	168.70000000	202.40000000	155.70000000
134	326.50000000	774.00000000	32.60000000	77.40000000	0.24000000	0.00000000	0.00000000	0.00000000	2.27279218	2.27279218	0.70000000	0.50000000	0.00000000	0.54700210	101.70000000	75.10000000	108.90000000	134.00000000	101.70000000
135	1207.00000000	608.00000000	120.70000000	60.80000000	0.19000000	0.00000000	0.00000000	0.00000000	1.76568542	1.76568542	0.50000000	0.50000000	0.00000000	0.49184908	103.50000000	74.80000000	110.70000000	141.80000000	103.50000000
136	290.50000000	310.00000000	29.10000000	31.00000000	3.30000000	0.00000000	0.00000000	0.00000000	19.69949477	19.69949477	6.30000000	1.10000000	0.00000000	2.04980255	123.50000000	89.30000000	134.10000000	159.10000000	123.50000000
137	1054.00000000	83.50000000	105.40000000	8.30000000	0.34000000	0.00000000	0.00000000	0.00000000	3.21421354	3.21421354	0.80000000	0.70000000	0.00000000	0.65795246	145.30000000	104.30000000	157.90000000	188.10000000	145.30000000
138	965.50000000	748.00000000	96.60000000	74.80000000	1.70000000	0.00000000	0.00000000	0.00000000	9.50121925	9.50121925	2.80000000	1.10000000	0.00000000	1.46906127	151.90000000	108.60000000	165.20000000	197.60000000	152.00000000
139	217.00000000	384.50000000	21.70000000	38.50000000	0.22000000	0.00000000	0.00000000	0.00000000	1.78994948	1.78994948	0.60000000	0.50000000	0.00000000	0.52320790	100.30000000	73.90000000	109.20000000	122.80000000	100.20000000
140	602.00000000	747.50000000	60.20000000	74.80000000	0.54000000	0.00000000	0.00000000	0.00000000	3.49705625	3.49705625	1.30000000	0.60000000	0.00000000	0.82918596	183.20000000	138.00000000	199.40000000	219.30000000	183.30000000
141	299.00000000	720.00000000	29.90000000	72.00000000	0.25000000	0.00000000	0.00000000	0.00000000	2.04852812	2.04852812	0.60000000	0.60000000	0.00000000	0.56418958	99.00000000	71.50000000	107.00000000	128.80000000	98.90000000
142	665.50000000	489.00000000	66.50000000	48.90000000	0.70000000	0.00000000	0.00000000	0.00000000	4.95563489	4.95563489	1.30000000	0.90000000	0.00000000	0.94069202	182.40000000	137.00000000	198.80000000	217.00000000	182.40000000
143	682.50000000	491.50000000	68.20000000	49.20000000	0.17000000	0.00000000	0.00000000	0.00000000	1.62426406	1.62426406	0.50000000	0.40000000	0.00000000	0.45834978	162.80000000	123.00000000	175.70000000	201.40000000	162.80000000
144	740.50000000	219.00000000	74.00000000	21.90000000	0.38000000	0.00000000	0.00000000	0.00000000	3.49705623	3.49705623	1.00000000	0.60000000	0.00000000	0.69557963	173.60000000	128.60000000	188.80000000	212.80000000	173.60000000
145	250.00000000	190.00000000	25.00000000	19.00000000	0.97000000	0.00000000	0.00000000	0.00000000	5.80416299	5.80416299	1.80000000	1.00000000	0.00000000	1.10845666	157.70000000	116.20000000	171.30000000	196.20000000	157.70000000
146	529.00000000	770.50000000	52.90000000	77.10000000	0.36000000	0.00000000	0.00000000	0.00000000	3.47279218	3.47279218	0.80000000	0.70000000	0.00000000	0.67230948	188.30000000	141.60000000	205.50000000	221.90000000	188.30000000
147	727.50000000	70.00000000	72.80000000	7.00000000	0.71000000	0.00000000	0.00000000	0.00000000	4.06274164	4.06274164	1.60000000	0.60000000	0.00000000	0.95078919	182.40000000	140.60000000	196.90000000	217.60000000	182.40000000
148	987.50000000	545.00000000	98.80000000	54.50000000	1.01000000	0.00000000	0.00000000	0.00000000	5.03847761	5.03847761	1.90000000	0.90000000	0.00000000	1.13119660	165.10000000	121.60000000	178.80000000	208.70000000	165.10000000
149	256.50000000	152.50000000	25.70000000	15.20000000	0.91000000	0.00000000	0.00000000	0.00000000	5.88700571	5.88700571	2.00000000	0.80000000	0.00000000	1.07344389	134.10000000	100.00000000	145.50000000	164.70000000	134.10000000
150	508.50000000	645.50000000	50.90000000	64.50000000	1.59000000	0.00000000	0.00000000	0.00000000	8.92548330	8.92548330	2.60000000	1.10000000	0.00000000	1.42283199	131.80000000	98.30000000	142.50000000	164.40000000	131.80000000
151	672.00000000	951.50000000	67.20000000	95.20000000	0.43000000	0.00000000	0.00000000	0.00000000	4.47279218	4.47279218	1.40000000	0.70000000	0.00000000	0.73561322	134.80000000	99.60000000	144.10000000	178.30000000	134.70000000
152	606.50000000	665.00000000	60.70000000	66.50000000	0.96000000	0.00000000	0.00000000	0.00000000	8.05269114	8.05269114	1.80000000	1.10000000	0.00000000	1.10269840	188.00000000	145.30000000	203.50000000	220.60000000	188.10000000
153	1242.50000000	412.00000000	124.20000000	41.20000000	0.90000000	0.00000000	0.00000000	0.00000000	6.68700572	6.68700572	2.10000000	0.80000000	0.00000000	1.06749679	136.30000000	100.00000000	146.40000000	179.30000000	136.30000000
154	705.00000000	936.00000000	70.50000000	93.60000000	0.52000000	0.00000000	0.00000000	0.00000000	3.15563488	3.15563488	1.10000000	0.60000000	0.00000000	0.80976439	155.60000000	115.50000000	167.30000000	199.90000000	155.60000000
155	701.50000000	157.00000000	70.20000000	15.70000000	0.86000000	0.00000000	0.00000000	0.00000000	6.63847760	6.63847760	1.70000000	0.90000000	0.00000000	1.04336945	168.50000000	127.00000000	181.80000000	209.20000000	168.50000000
156	430.00000000	359.50000000	43.00000000	36.00000000	1.20000000	0.00000000	0.00000000	0.00000000	6.53553385	6.53553385	1.60000000	1.50000000	0.00000000	1.23349960	102.20000000	75.80000000	110.90000000	126.40000000	102.20000000
157	692.00000000	919.00000000	69.20000000	91.90000000	1.34000000	0.00000000	0.00000000	0.00000000	8.48700572	8.48700572	2.50000000	0.90000000	0.00000000	1.30375411	172.50000000	129.20000000	186.10000000	216.10000000	172.50000000
158	409.00000000	941.50000000	40.90000000	94.20000000	0.19000000	0.00000000	0.00000000	0.00000000	2.07279217	2.07279217	0.60000000	0.50000000	0.00000000	0.48533423	99.30000000	73.90000000	107.00000000	126.30000000	99.30000000
159	666.00000000	352.50000000	66.60000000	35.20000000	0.96000000	0.00000000	0.00000000	0.00000000	5.92132031	5.92132031	1.90000000	0.90000000	0.00000000	1.10269840	173.40000000	129.10000000	188.40000000	212.70000000	173.40000000
160	137.50000000	521.50000000	13.80000000	52.20000000	0.88000000	0.00000000	0.00000000	0.00000000	5.75563489	5.75563489	1.50000000	0.90000000	0.00000000	1.05550206	167.00000000	124.80000000	180.80000000	206.90000000	167.10000000
161	731.50000000	409.50000000	73.20000000	41.00000000	0.16000000	0.00000000	0.00000000	0.00000000	1.70710677	1.70710677	0.50000000	0.40000000	0.00000000	0.44424332	114.10000000	86.40000000	123.00000000	140.50000000	114.10000000
162	1016.50000000	261.50000000	101.70000000	26.20000000	0.26000000	0.00000000	0.00000000	0.00000000	2.09705621	2.09705621	0.60000000	0.60000000	0.00000000	0.57536274	97.10000000	69.80000000	104.50000000	130.50000000	97.10000000
163	588.50000000	15.00000000	58.90000000	1.50000000	0.84000000	0.00000000	0.00000000	0.00000000	5.17989895	5.17989895	1.40000000	1.20000000	0.00000000	1.03417659	168.10000000	126.70000000	180.60000000	212.40000000	168.10000000
164	268.00000000	917.00000000	26.80000000	91.70000000	0.93000000	0.00000000	0.00000000	0.00000000	7.45269113	7.45269113	2.30000000	0.80000000	0.00000000	1.08524033	114.70000000	85.50000000	123.10000000	148.50000000	114.70000000
165	510.00000000	786.00000000	51.00000000	78.60000000	0.95000000	0.00000000	0.00000000	0.00000000	7.54558437	7.54558437	1.70000000	1.20000000	0.00000000	1.09980797	182.40000000	136.90000000	198.30000000	220.10000000	182.50000000
166	826.50000000	856.00000000	82.70000000	85.60000000	0.59000000	0.00000000	0.00000000	0.00000000	5.72132031	5.72132031	1.60000000	0.70000000	0.00000000	0.86304411	146.40000000	106.80000000	158.20000000	190.10000000	146.40000000
167	811.50000000	436.50000000	81.20000000	43.70000000	1.49000000	0.00000000	0.00000000	0.00000000	7.91126978	7.91126978	2.10000000	1.40000000	0.00000000	1.37736231	143.40000000	105.80000000	154.70000000	183.50000000	143.40000000
168	399.50000000	231.50000000	40.00000000	23.20000000	0.40000000	0.00000000	0.00000000	0.00000000	3.66274165	3.66274165	1.10000000	0.80000000	0.00000000	0.71364965	100.70000000	75.90000000	108.40000000	126.30000000	100.70000000
169	200.00000000	831.00000000	20.00000000	83.10000000	0.17000000	0.00000000	0.00000000	0.00000000	2.13137083	2.13137083	0.70000000	0.40000000	0.00000000	0.46524265	97.10000000	74.10000000	105.10000000	117.10000000	97.20000000
170	722.00000000	194.50000000	72.20000000	19.50000000	0.53000000	0.00000000	0.00000000	0.00000000	4.56984843	4.56984843	1.20000000	0.90000000	0.00000000	0.81758838	120.00000000	84.90000000	130.80000000	156.20000000	120.00000000
171	910.00000000	619.00000000	91.00000000	61.90000000	1.06000000	0.00000000	0.00000000	0.00000000	5.55563489	5.55563489	2.00000000	0.80000000	0.00000000	1.15899427	159.00000000	118.30000000	171.20000000	203.00000000	159.00000000
172	758.50000000	496.00000000	75.90000000	49.60000000	1.58000000	0.00000000	0.00000000	0.00000000	7.65269114	7.65269114	2.60000000	1.10000000	0.00000000	1.41610462	193.20000000	150.00000000	209.20000000	224.60000000	193.20000000
173	818.00000000	953.50000000	81.80000000	95.40000000	0.16000000	0.00000000	0.00000000	0.00000000	2.02426406	2.02426406	0.70000000	0.30000000	0.00000000	0.44424332	132.00000000	94.70000000	141.70000000	179.80000000	132.00000000
174	1113.00000000	103.50000000	111.30000000	10.40000000	0.14000000	0.00000000	0.00000000	0.00000000	1.95563489	1.95563489	0.60000000	0.40000000	0.00000000	0.41459298	107.40000000	79.90000000	115.20000000	139.30000000	107.40000000
175	1078.00000000	781.00000000	107.80000000	78.10000000	0.23000000	0.00000000	0.00000000	0.00000000	2.55563489	2.55563489	0.60000000	0.60000000	0.00000000	0.53523723	96.30000000	68.40000000	104.60000000	126.40000000	96.20000000
176	590.00000000	614.50000000	59.00000000	61.50000000	0.64000000	0.00000000	0.00000000	0.00000000	3.86274166	3.86274166	1.00000000	0.90000000	0.00000000	0.90270333	97.50000000	72.20000000	105.80000000	120.60000000	97.50000000
177	912.00000000	606.50000000	91.20000000	60.70000000	0.68000000	0.00000000	0.00000000	0.00000000	5.13137083	5.13137083	1.90000000	0.60000000	0.00000000	0.93048530	164.20000000	122.20000000	176.70000000	209.80000000	164.20000000
178	941.50000000	579.00000000	94.20000000	57.90000000	0.85000000	0.00000000	0.00000000	0.00000000	4.21421354	4.21421354	1.50000000	0.80000000	0.00000000	1.04031419	113.90000000	87.60000000	123.20000000	133.90000000	113.80000000
179	558.50000000	766.50000000	55.90000000	76.70000000	1.17000000	0.00000000	0.00000000	0.00000000	6.28700572	6.28700572	2.30000000	0.90000000	0.00000000	1.21791792	185.70000000	140.90000000	201.90000000	219.60000000	185.70000000
180	578.00000000	884.50000000	57.80000000	88.50000000	0.75000000	0.00000000	0.00000000	0.00000000	4.15563489	4.15563489	1.10000000	1.00000000	0.00000000	0.97394223	168.10000000	127.20000000	181.00000000	209.10000000	168.10000000
181	1237.50000000	695.50000000	123.80000000	69.50000000	0.46000000	0.00000000	0.00000000	0.00000000	3.15563489	3.15563489	0.80000000	0.80000000	0.00000000	0.76113336	81.70000000	59.20000000	87.60000000	111.70000000	81.80000000
182	120.50000000	465.50000000	12.10000000	46.60000000	0.91000000	0.00000000	0.00000000	0.00000000	4.87279218	4.87279218	1.50000000	1.10000000	0.00000000	1.07344389	161.30000000	116.70000000	176.00000000	202.90000000	161.30000000
183	925.00000000	367.00000000	92.50000000	36.70000000	7.56000000	0.00000000	0.00000000	0.00000000	39.73208485	39.73208485	14.40000000	0.90000000	0.00000000	3.10150363	140.70000000	102.50000000	152.00000000	182.60000000	140.70000000
184	58.50000000	621.50000000	5.90000000	62.20000000	1.49000000	0.00000000	0.00000000	0.00000000	7.71126977	7.71126977	2.10000000	1.30000000	0.00000000	1.37736231	139.30000000	103.20000000	150.30000000	177.90000000	139.30000000
185	392.00000000	544.50000000	39.20000000	54.50000000	0.25000000	0.00000000	0.00000000	0.00000000	2.15563488	2.15563488	0.60000000	0.60000000	0.00000000	0.55851919	89.40000000	68.50000000	95.90000000	111.80000000	89.50000000
186	747.00000000	247.50000000	74.70000000	24.80000000	0.33000000	0.00000000	0.00000000	0.00000000	3.33137083	3.33137083	1.10000000	0.60000000	0.00000000	0.64820448	137.30000000	101.90000000	148.10000000	174.90000000	137.40000000
187	570.50000000	926.50000000	57.10000000	92.70000000	0.33000000	0.00000000	0.00000000	0.00000000	3.07279218	3.07279218	0.70000000	0.70000000	0.00000000	0.64327510	163.50000000	124.70000000	176.00000000	200.90000000	163.50000000
188	991.50000000	27.50000000	99.20000000	2.80000000	0.62000000	0.00000000	0.00000000	0.00000000	3.64852812	3.64852812	1.10000000	0.70000000	0.00000000	0.88848664	146.30000000	108.40000000	157.40000000	188.80000000	146.30000000
189	903.50000000	266.50000000	90.40000000	26.70000000	0.12000000	0.00000000	0.00000000	0.00000000	1.38994946	1.38994946	0.40000000	0.40000000	0.00000000	0.38265199	98.30000000	74.20000000	106.20000000	120.80000000	98.30000000

#3
liczenie
obiektów (w)	udział punktów	pole obrazu(mm²)
	24	100.00	12288.0000
nr.	x(pix.):	y(pix.):	x(mm):	y(mm):	powierzchnia:(mm²)	długość:(mm)	szerokość:(mm)	kąt:(°)	obwód:(mm)	obwód C.:(mm)	średnica Fereta H(mm)	średnica Fereta V(mm)	średn. Martina:(mm)	średn. sitowa:(mm)	średnia jaskrawość	R	G	B	Y
1	78.00000000	239.50000000	7.80000000	24.00000000	0.47000000	0	0	0	3.15563489	3.15563489	1.10000000	0.60000000	0	0.76945201	169.00000000	133.40000000	182.10000000	194.50000000	169.00000000
2	509.50000000	25.50000000	51.00000000	2.60000000	0.92000000	0	0	0	4.27279217	4.27279217	1.30000000	0.90000000	0	1.07935823	141.70000000	109.80000000	151.70000000	174.10000000	141.70000000
3	145.50000000	827.00000000	14.60000000	82.70000000	0.31000000	0	0	0	2.30710677	2.30710677	0.70000000	0.60000000	0	0.62316776	185.10000000	148.30000000	199.30000000	209.10000000	185.20000000
4	1223.50000000	767.00000000	122.40000000	76.70000000	0.69000000	0	0	0	3.58994948	3.58994948	1.30000000	0.70000000	0	0.93389993	156.00000000	117.30000000	170.30000000	183.80000000	156.00000000
5	973.50000000	882.50000000	97.40000000	88.20000000	0.50000000	0	0	0	4.12132031	4.12132031	1.30000000	0.70000000	0	0.79388511	181.60000000	141.60000000	197.80000000	203.60000000	181.70000000
6	718.00000000	676.00000000	71.80000000	67.60000000	0.58000000	0	0	0	3.18994948	3.18994948	1.10000000	0.70000000	0	0.85563587	180.90000000	143.50000000	195.40000000	204.20000000	180.90000000
7	943.50000000	699.00000000	94.40000000	69.90000000	0.29000000	0	0	0	2.98994948	2.98994948	1.00000000	0.50000000	0	0.60238963	185.90000000	155.50000000	197.70000000	204.00000000	185.80000000
8	409.50000000	549.00000000	41.00000000	54.90000000	0.29000000	0	0	0	2.16568542	2.16568542	0.70000000	0.50000000	0	0.60765078	192.90000000	158.70000000	206.20000000	214.10000000	192.90000000
9	582.50000000	407.00000000	58.20000000	40.70000000	0.14000000	0	0	0	1.96568542	1.96568542	0.50000000	0.40000000	0	0.42220082	192.80000000	159.30000000	206.20000000	212.60000000	192.90000000
10	418.50000000	148.50000000	41.90000000	14.90000000	0.75000000	0	0	0	4.63847761	4.63847761	1.80000000	0.70000000	0	0.97394223	152.20000000	117.60000000	162.90000000	188.00000000	152.20000000
11	849.00000000	476.00000000	84.90000000	47.60000000	0.42000000	0	0	0	3.07279218	3.07279218	1.20000000	0.50000000	0	0.72690743	153.00000000	121.80000000	164.50000000	175.40000000	153.00000000
12	333.00000000	32.00000000	33.30000000	3.20000000	0.22000000	0	0	0	1.90710677	1.90710677	0.60000000	0.50000000	0	0.52320790	102.50000000	84.20000000	107.70000000	123.30000000	102.50000000
13	181.50000000	151.00000000	18.20000000	15.10000000	1.01000000	0	0	0	5.87279218	5.87279218	1.90000000	0.70000000	0	1.13119660	169.00000000	130.00000000	181.70000000	205.80000000	169.00000000
14	230.50000000	107.50000000	23.10000000	10.80000000	0.48000000	0	0	0	3.13137083	3.13137083	0.90000000	0.80000000	0	0.78176402	145.70000000	108.10000000	157.40000000	184.00000000	145.70000000
15	69.50000000	287.50000000	7.00000000	28.80000000	1.08000000	0	0	0	5.57989895	5.57989895	1.80000000	1.10000000	0	1.17264603	135.60000000	107.00000000	144.20000000	166.00000000	135.60000000
16	851.50000000	616.50000000	85.20000000	61.70000000	0.30000000	0	0	0	2.69705623	2.69705623	0.70000000	0.70000000	0	0.61803872	139.70000000	115.90000000	150.40000000	146.60000000	139.70000000
17	328.00000000	721.00000000	32.80000000	72.10000000	0.96000000	0	0	0	4.37989893	4.37989893	1.90000000	0.70000000	0	1.10558128	217.40000000	186.20000000	229.30000000	238.10000000	217.40000000
18	1157.00000000	432.50000000	115.70000000	43.20000000	1.14000000	0	0	0	4.43847759	4.43847759	1.70000000	0.90000000	0	1.20213430	215.20000000	183.20000000	227.10000000	238.20000000	215.20000000
19	205.00000000	621.50000000	20.50000000	62.20000000	0.90000000	0	0	0	6.31126978	6.31126978	2.10000000	0.80000000	0	1.07047447	193.60000000	156.80000000	207.30000000	219.80000000	193.60000000
20	1062.50000000	111.00000000	106.20000000	11.10000000	0.21000000	0	0	0	1.88284271	1.88284271	0.50000000	0.50000000	0	0.51708829	100.00000000	77.70000000	107.30000000	120.50000000	99.90000000
21	182.00000000	124.00000000	18.20000000	12.40000000	0.96000000	0	0	0	5.23847760	5.23847760	1.80000000	0.90000000	0	1.10269840	129.70000000	98.00000000	139.30000000	163.30000000	129.70000000
22	1214.00000000	587.50000000	121.40000000	58.80000000	0.58000000	0	0	0	5.22842708	5.22842708	1.90000000	0.70000000	0	0.85934797	126.50000000	97.50000000	137.20000000	147.60000000	126.50000000
23	815.00000000	362.00000000	81.50000000	36.20000000	0.53000000	0	0	0	3.63847760	3.63847760	1.40000000	0.60000000	0	0.81758838	118.20000000	96.20000000	126.70000000	131.80000000	118.10000000
24	822.50000000	453.00000000	82.20000000	45.30000000	0.10000000	0	0	0	1.22426406	1.22426406	0.40000000	0.30000000	0	0.34778982	119.80000000	100.50000000	128.80000000	124.00000000	119.80000000

#4
liczenie
obiektów (w)	udział punktów	pole obrazu(mm²)
	17	100.00	12288.0000
nr.	x(pix.):	y(pix.):	x(mm):	y(mm):	powierzchnia:(mm²)	długość:(mm)	szerokość:(mm)	kąt:(°)	obwód:(mm)	obwód C.:(mm)	średnica Fereta H(mm)	średnica Fereta V(mm)	średn. Martina:(mm)	średn. sitowa:(mm)	średnia jaskrawość	R	G	B	Y
1	754.00000000	728.00000000	75.40000000	72.80000000	0.28000000	0	0	0	2.24852812	2.24852812	0.70000000	0.50000000	0	0.59708213	156.20000000	118.50000000	168.30000000	192.70000000	156.20000000
2	235.50000000	768.00000000	23.60000000	76.80000000	0.24000000	0	0	0	1.96568542	1.96568542	0.60000000	0.50000000	0	0.55279064	155.10000000	120.30000000	167.10000000	185.50000000	155.20000000
3	643.00000000	206.00000000	64.30000000	20.60000000	0.46000000	0	0	0	2.84852812	2.84852812	0.90000000	0.60000000	0	0.76530399	190.40000000	151.00000000	205.70000000	215.90000000	190.50000000
4	788.50000000	813.00000000	78.90000000	81.30000000	0.55000000	0	0	0	3.55563488	3.55563488	1.30000000	0.60000000	0	0.83301594	152.90000000	110.90000000	165.10000000	200.70000000	152.90000000
5	1213.50000000	411.50000000	121.40000000	41.20000000	0.52000000	0	0	0	3.41421354	3.41421354	1.10000000	0.70000000	0	0.81368579	120.80000000	84.60000000	129.50000000	170.80000000	120.80000000
6	658.00000000	397.50000000	65.80000000	39.80000000	0.83000000	0	0	0	6.69705625	6.69705625	2.00000000	0.80000000	0	1.02800235	186.20000000	146.90000000	200.00000000	217.80000000	186.20000000
7	918.00000000	73.50000000	91.80000000	7.40000000	0.18000000	0	0	0	1.76568542	1.76568542	0.50000000	0.50000000	0	0.47873074	110.20000000	82.40000000	119.20000000	137.00000000	110.20000000
8	518.50000000	502.50000000	51.90000000	50.20000000	0.38000000	0	0	0	2.58994948	2.58994948	0.90000000	0.50000000	0	0.69098830	212.40000000	178.30000000	225.50000000	234.10000000	212.40000000
9	1039.50000000	121.50000000	104.00000000	12.20000000	1.41000000	0	0	0	11.07695520	11.07695520	3.30000000	0.80000000	0	1.33987602	172.30000000	129.20000000	187.00000000	209.90000000	172.30000000
10	1214.50000000	9.50000000	121.50000000	1.00000000	0.44000000	0	0	0	2.44852812	2.44852812	0.70000000	0.70000000	0	0.74848206	148.60000000	111.40000000	160.40000000	185.40000000	148.60000000
11	937.50000000	174.00000000	93.80000000	17.40000000	0.80000000	0	0	0	5.83847760	5.83847760	1.60000000	1.00000000	0	1.00609415	133.80000000	101.70000000	144.40000000	163.70000000	133.80000000
12	922.50000000	146.50000000	92.20000000	14.70000000	0.64000000	0	0	0	3.87279217	3.87279217	1.40000000	0.70000000	0	0.89917023	201.60000000	163.50000000	216.10000000	226.90000000	201.60000000
13	578.00000000	168.00000000	57.80000000	16.80000000	0.15000000	0	0	0	1.58994946	1.58994946	0.50000000	0.40000000	0	0.42967399	122.00000000	100.30000000	131.00000000	132.10000000	122.00000000
14	1183.50000000	180.00000000	118.40000000	18.00000000	0.83000000	0	0	0	6.88700571	6.88700571	1.90000000	1.00000000	0	1.02490128	109.70000000	80.10000000	118.20000000	143.90000000	109.70000000
15	1083.50000000	324.00000000	108.40000000	32.40000000	1.30000000	0	0	0	8.32132031	8.32132031	1.70000000	1.40000000	0	1.28407368	144.80000000	105.70000000	156.20000000	188.80000000	144.80000000
16	574.00000000	408.50000000	57.40000000	40.90000000	0.14000000	0	0	0	1.82426406	1.82426406	0.50000000	0.40000000	0	0.41459298	94.60000000	78.90000000	100.80000000	104.30000000	94.70000000
17	226.50000000	84.00000000	22.70000000	8.40000000	0.98000000	0	0	0	4.37989894	4.37989894	1.20000000	1.10000000	0	1.11703839	98.10000000	75.20000000	107.90000000	107.90000000	98.10000000

#5
liczenie
obiektów (w)	udział punktów	pole obrazu(mm²)
	19	100.00	12288.0000
nr.	x(pix.):	y(pix.):	x(mm):	y(mm):	powierzchnia:(mm²)	długość:(mm)	szerokość:(mm)	kąt:(°)	obwód:(mm)	obwód C.:(mm)	średnica Fereta H(mm)	średnica Fereta V(mm)	średn. Martina:(mm)	średn. sitowa:(mm)	średnia jaskrawość	R	G	B	Y
1	1117.00000000	910.50000000	111.70000000	91.10000000	0.42000000	0	0	0	2.70710677	2.70710677	1.00000000	0.50000000	0	0.72690743	172.60000000	132.10000000	187.30000000	204.10000000	172.70000000
2	307.50000000	290.50000000	30.80000000	29.10000000	0.51000000	0	0	0	2.96568542	2.96568542	1.10000000	0.50000000	0	0.80582391	192.00000000	157.60000000	204.80000000	216.70000000	192.00000000
3	619.50000000	621.00000000	62.00000000	62.10000000	0.81000000	0	0	0	3.89705622	3.89705622	1.30000000	0.80000000	0	1.01554125	183.90000000	145.50000000	197.90000000	212.60000000	183.90000000
4	30.00000000	541.00000000	3.00000000	54.10000000	0.74000000	0	0	0	3.55563487	3.55563487	1.10000000	0.90000000	0	0.96738362	185.40000000	150.80000000	198.80000000	206.90000000	185.40000000
5	1069.00000000	790.00000000	106.90000000	79.00000000	0.54000000	0	0	0	3.73137083	3.73137083	1.40000000	0.60000000	0	0.82918596	177.80000000	139.10000000	191.90000000	206.90000000	177.80000000
6	1233.50000000	562.50000000	123.40000000	56.20000000	0.77000000	0	0	0	5.41421354	5.41421354	1.70000000	0.70000000	0	0.99014870	183.90000000	143.10000000	198.40000000	216.20000000	183.90000000
7	511.50000000	235.50000000	51.20000000	23.60000000	0.37000000	0	0	0	2.73137083	2.73137083	0.90000000	0.60000000	0	0.68636625	141.20000000	110.40000000	150.70000000	172.90000000	141.20000000
8	10.50000000	788.50000000	1.10000000	78.90000000	0.41000000	0	0	0	2.44852812	2.44852812	0.70000000	0.70000000	0	0.72251520	162.50000000	131.00000000	173.80000000	187.00000000	162.50000000
9	130.00000000	25.00000000	13.00000000	2.50000000	0.53000000	0	0	0	3.72132030	3.72132030	1.40000000	0.60000000	0	0.81758838	148.10000000	117.20000000	157.50000000	180.70000000	148.10000000
10	1243.00000000	11.50000000	124.30000000	1.20000000	0.40000000	0	0	0	3.44852812	3.44852812	0.90000000	0.70000000	0	0.71364965	156.40000000	119.60000000	167.80000000	194.10000000	156.40000000
11	880.00000000	665.50000000	88.00000000	66.50000000	0.45000000	0	0	0	2.56568542	2.56568542	0.70000000	0.70000000	0	0.75693976	205.60000000	171.70000000	218.70000000	227.50000000	205.60000000
12	760.50000000	845.50000000	76.00000000	84.60000000	0.31000000	0	0	0	2.22426406	2.22426406	0.70000000	0.50000000	0	0.62316776	133.00000000	106.00000000	142.10000000	157.40000000	133.10000000
13	445.50000000	831.00000000	44.60000000	83.10000000	0.12000000	0	0	0	1.90710677	1.90710677	0.60000000	0.30000000	0	0.38265199	133.40000000	107.80000000	140.90000000	161.80000000	133.40000000
14	898.00000000	754.50000000	89.80000000	75.50000000	0.60000000	0	0	0	4.09705623	4.09705623	1.50000000	0.70000000	0	0.87403874	151.90000000	117.20000000	163.10000000	185.00000000	151.90000000
15	223.50000000	699.50000000	22.40000000	70.00000000	0.75000000	0	0	0	4.57989894	4.57989894	1.50000000	0.80000000	0	0.97720502	132.10000000	102.30000000	141.30000000	162.40000000	132.10000000
16	324.00000000	571.00000000	32.40000000	57.10000000	0.26000000	0	0	0	2.93137083	2.93137083	0.80000000	0.60000000	0	0.57536274	171.80000000	135.00000000	184.70000000	202.30000000	171.90000000
17	949.00000000	937.00000000	94.90000000	93.70000000	0.61000000	0	0	0	4.77989895	4.77989895	1.70000000	0.70000000	0	0.88129230	144.90000000	112.40000000	156.30000000	171.60000000	145.00000000
18	77.00000000	541.50000000	7.70000000	54.20000000	2.13000000	0	0	0	11.65269111	11.65269111	5.00000000	0.90000000	0	1.64488116	118.60000000	93.70000000	126.10000000	145.60000000	118.60000000
19	321.00000000	562.50000000	32.10000000	56.20000000	0.27000000	0	0	0	2.93137083	2.93137083	0.80000000	0.60000000	0	0.58632301	170.80000000	133.70000000	184.10000000	199.80000000	170.80000000

#6
liczenie
obiektów (w)	udział punktów	pole obrazu(mm²)
	11	100.00	12288.0000
nr.	x(pix.):	y(pix.):	x(mm):	y(mm):	powierzchnia:(mm²)	długość:(mm)	szerokość:(mm)	kąt:(°)	obwód:(mm)	obwód C.:(mm)	średnica Fereta H(mm)	średnica Fereta V(mm)	średn. Martina:(mm)	średn. sitowa:(mm)	średnia jaskrawość	R	G	B	Y
1	637.00000000	322.00000000	63.70000000	32.20000000	0.54000000	0	0	0	3.15563489	3.15563489	1.10000000	0.70000000	0	0.82533821	176.90000000	135.30000000	192.10000000	208.10000000	176.90000000
2	211.00000000	581.00000000	21.10000000	58.10000000	0.45000000	0	0	0	2.67279217	2.67279217	1.10000000	0.60000000	0	0.75272279	190.80000000	144.80000000	208.20000000	222.00000000	190.80000000
3	10.50000000	338.50000000	1.10000000	33.90000000	0.47000000	0	0	0	2.90710677	2.90710677	1.00000000	0.50000000	0	0.76945201	180.30000000	134.20000000	196.10000000	220.00000000	180.30000000
4	316.50000000	680.50000000	31.70000000	68.00000000	0.70000000	0	0	0	3.97989894	3.97989894	1.60000000	0.70000000	0	0.94406974	168.90000000	125.10000000	183.90000000	206.80000000	168.90000000
5	797.00000000	831.00000000	79.70000000	83.10000000	0.46000000	0	0	0	4.02842705	4.02842705	1.40000000	0.60000000	0	0.76530399	179.70000000	135.10000000	195.70000000	214.10000000	179.70000000
6	209.00000000	675.00000000	20.90000000	67.50000000	0.85000000	0	0	0	4.67279218	4.67279218	1.80000000	0.80000000	0	1.03724993	176.50000000	131.90000000	191.40000000	217.00000000	176.50000000
7	527.50000000	530.00000000	52.80000000	53.00000000	1.19000000	0	0	0	7.56984843	7.56984843	2.10000000	1.10000000	0	1.22832767	191.10000000	145.60000000	207.70000000	225.20000000	191.10000000
8	226.50000000	161.50000000	22.70000000	16.20000000	0.95000000	0	0	0	6.34558434	6.34558434	1.80000000	1.00000000	0	1.09980797	159.40000000	116.50000000	173.00000000	202.10000000	159.40000000
9	863.50000000	406.00000000	86.40000000	40.60000000	1.85000000	0	0	0	8.40832602	8.40832602	3.50000000	0.70000000	0	1.53476160	194.50000000	148.30000000	211.40000000	228.70000000	194.50000000
10	1102.50000000	279.00000000	110.20000000	27.90000000	0.17000000	0	0	0	1.64852812	1.64852812	0.60000000	0.40000000	0	0.46524265	88.50000000	68.10000000	96.20000000	102.50000000	88.50000000
11	1117.00000000	5.50000000	111.70000000	0.60000000	0.41000000	0	0	0	4.44852812	4.44852812	2.00000000	0.30000000	0	0.72251520	51.40000000	36.50000000	54.70000000	73.50000000	51.40000000

#7
liczenie
obiektów (w)	udział punktów	pole obrazu(mm²)
	18	100.00	12288.0000
nr.	x(pix.):	y(pix.):	x(mm):	y(mm):	powierzchnia:(mm²)	długość:(mm)	szerokość:(mm)	kąt:(°)	obwód:(mm)	obwód C.:(mm)	średnica Fereta H(mm)	średnica Fereta V(mm)	średn. Martina:(mm)	średn. sitowa:(mm)	średnia jaskrawość	R	G	B	Y
1	20.00000000	398.00000000	2.00000000	39.80000000	0.51000000	0	0	0	2.93137083	2.93137083	0.90000000	0.70000000	0	0.80582391	209.70000000	179.30000000	221.40000000	229.60000000	209.70000000
2	911.00000000	564.00000000	91.10000000	56.40000000	0.24000000	0	0	0	1.88284271	1.88284271	0.50000000	0.50000000	0	0.55279064	190.10000000	149.10000000	205.50000000	218.60000000	190.10000000
3	135.00000000	17.00000000	13.50000000	1.70000000	0.41000000	0	0	0	2.64852812	2.64852812	0.90000000	0.50000000	0	0.72251520	189.80000000	149.20000000	205.00000000	218.20000000	189.80000000
4	1146.50000000	699.00000000	114.70000000	69.90000000	0.39000000	0	0	0	2.44852811	2.44852811	0.70000000	0.70000000	0	0.70467256	188.30000000	149.40000000	202.90000000	214.90000000	188.30000000
5	912.00000000	889.00000000	91.20000000	88.90000000	0.36000000	0	0	0	3.47279218	3.47279218	0.90000000	0.70000000	0	0.67230948	197.30000000	160.70000000	211.30000000	221.50000000	197.30000000
6	107.50000000	468.00000000	10.80000000	46.80000000	0.66000000	0	0	0	4.23847759	4.23847759	1.40000000	0.80000000	0	0.91322062	160.60000000	122.00000000	173.50000000	195.90000000	160.70000000
7	998.50000000	670.00000000	99.90000000	67.00000000	0.50000000	0	0	0	4.55563489	4.55563489	1.30000000	0.70000000	0	0.79388511	181.80000000	143.30000000	195.80000000	210.70000000	181.80000000
8	887.00000000	115.00000000	88.70000000	11.50000000	0.49000000	0	0	0	2.73137082	2.73137082	0.90000000	0.70000000	0	0.78986542	206.30000000	173.90000000	218.60000000	227.80000000	206.30000000
9	143.50000000	520.00000000	14.40000000	52.00000000	0.72000000	0	0	0	4.75563489	4.75563489	1.70000000	0.60000000	0	0.95413116	149.30000000	113.40000000	161.20000000	182.40000000	149.30000000
10	1203.00000000	763.00000000	120.30000000	76.30000000	1.32000000	0	0	0	5.17989895	5.17989895	1.30000000	1.30000000	0	1.29640896	170.30000000	132.90000000	183.00000000	203.50000000	170.30000000
11	1247.00000000	900.50000000	124.70000000	90.10000000	0.24000000	0	0	0	1.96568542	1.96568542	0.60000000	0.50000000	0	0.55279064	109.40000000	80.70000000	117.90000000	141.40000000	109.40000000
12	682.50000000	825.00000000	68.20000000	82.50000000	0.83000000	0	0	0	5.52132031	5.52132031	1.70000000	0.90000000	0	1.02490128	157.60000000	121.70000000	170.20000000	187.20000000	157.70000000
13	1267.50000000	132.00000000	126.80000000	13.20000000	0.66000000	0	0	0	5.35563489	5.35563489	1.80000000	0.70000000	0	0.91322062	127.80000000	94.00000000	137.60000000	166.00000000	127.80000000
14	943.50000000	535.00000000	94.40000000	53.50000000	0.57000000	0	0	0	5.94558437	5.94558437	1.70000000	0.70000000	0	0.85190759	199.00000000	157.00000000	214.90000000	227.90000000	199.00000000
15	1066.50000000	665.00000000	106.70000000	66.50000000	1.66000000	0	0	0	10.46690465	10.46690465	3.50000000	1.20000000	0	1.45162373	174.00000000	131.60000000	188.80000000	209.30000000	174.10000000
16	1008.00000000	768.50000000	100.80000000	76.90000000	3.64000000	0	0	0	8.83847760	8.83847760	3.10000000	1.30000000	0	2.15133116	208.30000000	168.00000000	223.60000000	235.80000000	208.40000000
17	585.00000000	557.50000000	58.50000000	55.80000000	0.93000000	0	0	0	5.99411248	5.99411248	2.50000000	0.60000000	0	1.08816946	142.50000000	109.70000000	153.60000000	171.40000000	142.50000000
18	655.50000000	520.50000000	65.50000000	52.10000000	0.14000000	0	0	0	1.84852811	1.84852811	0.50000000	0.50000000	0	0.42220082	97.30000000	79.60000000	104.60000000	107.50000000	97.40000000

#8
liczenie
obiektów (w)	udział punktów	pole obrazu(mm²)
	20	100.00	12288.0000
nr.	x(pix.):	y(pix.):	x(mm):	y(mm):	powierzchnia:(mm²)	długość:(mm)	szerokość:(mm)	kąt:(°)	obwód:(mm)	obwód C.:(mm)	średnica Fereta H(mm)	średnica Fereta V(mm)	średn. Martina:(mm)	średn. sitowa:(mm)	średnia jaskrawość	R	G	B	Y
1	425.50000000	496.00000000	42.60000000	49.60000000	0.41000000	0	0	0	2.38994948	2.38994948	0.70000000	0.70000000	0	0.71809610	112.30000000	75.80000000	122.10000000	157.60000000	112.30000000
2	560.00000000	480.50000000	56.00000000	48.10000000	0.30000000	0	0	0	2.27279218	2.27279218	0.70000000	0.60000000	0	0.61286676	104.80000000	73.60000000	112.30000000	147.80000000	104.80000000
3	493.50000000	410.50000000	49.40000000	41.10000000	0.62000000	0	0	0	3.47279218	3.47279218	1.00000000	0.80000000	0	0.88489678	113.40000000	76.30000000	122.70000000	162.80000000	113.40000000
4	740.50000000	617.00000000	74.00000000	61.70000000	0.44000000	0	0	0	2.62426406	2.62426406	0.70000000	0.70000000	0	0.74421717	182.70000000	132.80000000	201.30000000	218.00000000	182.70000000
5	364.50000000	806.00000000	36.50000000	80.60000000	1.45000000	0	0	0	8.63847760	8.63847760	2.10000000	1.10000000	0	1.35640375	152.00000000	103.80000000	166.50000000	203.70000000	152.00000000
6	1081.50000000	131.50000000	108.20000000	13.20000000	0.29000000	0	0	0	2.47279218	2.47279218	0.70000000	0.60000000	0	0.60238963	91.80000000	67.20000000	97.50000000	127.20000000	91.80000000
7	731.00000000	15.00000000	73.10000000	1.50000000	0.58000000	0	0	0	3.56568542	3.56568542	1.30000000	0.50000000	0	0.85934797	138.70000000	95.50000000	149.60000000	196.10000000	138.70000000
8	720.00000000	179.50000000	72.00000000	17.90000000	0.52000000	0	0	0	3.93137083	3.93137083	1.10000000	0.70000000	0	0.81368579	121.60000000	81.80000000	131.80000000	173.30000000	121.60000000
9	1144.00000000	533.50000000	114.40000000	53.40000000	0.72000000	0	0	0	4.66274166	4.66274166	1.60000000	0.80000000	0	0.95746147	101.60000000	68.00000000	108.80000000	152.40000000	101.60000000
10	454.00000000	48.00000000	45.40000000	4.80000000	1.70000000	0	0	0	7.88700571	7.88700571	2.80000000	0.90000000	0	1.46906127	127.70000000	85.80000000	138.10000000	183.90000000	127.70000000
11	293.50000000	335.00000000	29.40000000	33.50000000	0.86000000	0	0	0	4.27279218	4.27279218	1.70000000	0.70000000	0	1.04336945	110.70000000	74.60000000	119.50000000	160.40000000	110.70000000
12	11.00000000	866.00000000	1.10000000	86.60000000	0.69000000	0	0	0	4.10710677	4.10710677	1.20000000	0.70000000	0	0.93389993	118.50000000	80.80000000	126.30000000	177.70000000	118.50000000
13	860.00000000	317.00000000	86.00000000	31.70000000	0.68000000	0	0	0	4.21421354	4.21421354	1.40000000	0.80000000	0	0.93048530	106.70000000	71.00000000	115.20000000	156.10000000	106.70000000
14	545.00000000	751.00000000	54.50000000	75.10000000	0.86000000	0	0	0	6.96984843	6.96984843	1.80000000	0.80000000	0	1.04336945	161.20000000	114.20000000	176.20000000	207.60000000	161.20000000
15	300.00000000	148.50000000	30.00000000	14.90000000	1.43000000	0	0	0	6.57989895	6.57989895	2.30000000	1.00000000	0	1.34934523	119.10000000	80.70000000	129.40000000	166.10000000	119.00000000
16	115.00000000	865.50000000	11.50000000	86.60000000	2.15000000	0	0	0	9.62842708	9.62842708	2.70000000	1.20000000	0	1.65452864	137.80000000	93.50000000	150.00000000	191.50000000	137.90000000
17	587.00000000	190.50000000	58.70000000	19.10000000	6.03000000	0	0	0	26.24680362	26.24680362	9.00000000	1.20000000	0	2.76970545	123.50000000	82.20000000	134.50000000	175.60000000	123.50000000
18	837.00000000	673.50000000	83.70000000	67.40000000	2.81000000	0	0	0	14.14974738	14.14974738	4.50000000	1.40000000	0	1.88982457	136.00000000	93.30000000	148.20000000	185.00000000	136.00000000
19	1274.00000000	682.00000000	127.40000000	68.20000000	0.23000000	0	0	0	3.82426406	3.82426406	1.60000000	0.20000000	0	0.53523723	65.90000000	48.00000000	71.20000000	85.90000000	65.90000000
20	164.00000000	4.50000000	16.40000000	0.50000000	0.46000000	0	0	0	4.63847760	4.63847760	1.40000000	0.60000000	0	0.76113336	47.40000000	35.00000000	51.70000000	57.30000000	47.40000000

#9
liczenie
obiektów (w)	udział punktów	pole obrazu(mm²)
	13	100.00	12288.0000
nr.	x(pix.):	y(pix.):	x(mm):	y(mm):	powierzchnia:(mm²)	długość:(mm)	szerokość:(mm)	kąt:(°)	obwód:(mm)	obwód C.:(mm)	średnica Fereta H(mm)	średnica Fereta V(mm)	średn. Martina:(mm)	średn. sitowa:(mm)	średnia jaskrawość	R	G	B	Y
1	105.00000000	364.50000000	10.50000000	36.50000000	0.48000000	0	0	0	3.18994948	3.18994948	0.90000000	0.70000000	0	0.77768167	144.70000000	104.00000000	158.20000000	182.60000000	144.80000000
2	798.00000000	500.50000000	79.80000000	50.10000000	0.69000000	0	0	0	5.72132031	5.72132031	1.60000000	0.80000000	0	0.93389993	166.90000000	122.40000000	181.40000000	209.00000000	166.90000000
3	112.50000000	605.00000000	11.20000000	60.50000000	0.47000000	0	0	0	3.27279218	3.27279218	0.90000000	0.70000000	0	0.76945201	165.00000000	120.40000000	181.20000000	197.90000000	164.90000000
4	328.50000000	920.00000000	32.90000000	92.00000000	0.24000000	0	0	0	2.18994948	2.18994948	0.70000000	0.50000000	0	0.54700210	148.40000000	110.40000000	158.80000000	194.80000000	148.40000000
5	448.50000000	257.00000000	44.90000000	25.70000000	1.04000000	0	0	0	7.51126978	7.51126978	2.30000000	0.80000000	0	1.15072548	172.60000000	127.00000000	187.60000000	215.70000000	172.70000000
6	986.00000000	407.50000000	98.60000000	40.80000000	0.41000000	0	0	0	4.35563489	4.35563489	1.10000000	0.70000000	0	0.71809610	172.90000000	131.20000000	188.10000000	204.50000000	173.00000000
7	1007.50000000	237.50000000	100.80000000	23.80000000	0.28000000	0	0	0	2.24852811	2.24852811	0.80000000	0.50000000	0	0.59708213	187.20000000	140.50000000	204.00000000	223.10000000	187.20000000
8	293.00000000	668.50000000	29.30000000	66.90000000	0.34000000	0	0	0	2.56568542	2.56568542	0.90000000	0.50000000	0	0.65795246	172.40000000	126.80000000	187.60000000	213.40000000	172.30000000
9	455.50000000	585.00000000	45.60000000	58.50000000	1.35000000	0	0	0	8.29705625	8.29705625	2.70000000	0.80000000	0	1.31105812	177.50000000	129.00000000	194.20000000	219.10000000	177.60000000
10	789.00000000	126.00000000	78.90000000	12.60000000	0.97000000	0	0	0	5.78994946	5.78994946	2.50000000	0.50000000	0	1.10845666	135.10000000	97.20000000	146.10000000	177.60000000	135.10000000
11	1165.50000000	765.00000000	116.60000000	76.50000000	0.82000000	0	0	0	5.41421354	5.41421354	1.50000000	0.90000000	0	1.02179079	110.00000000	78.50000000	118.60000000	147.90000000	110.00000000
12	978.50000000	189.00000000	97.90000000	18.90000000	1.05000000	0	0	0	5.92132030	5.92132030	2.10000000	1.00000000	0	1.15348833	124.90000000	88.60000000	135.70000000	164.70000000	124.90000000
13	75.00000000	953.50000000	7.50000000	95.40000000	0.16000000	0	0	0	1.68284271	1.68284271	0.60000000	0.30000000	0	0.45135167	99.10000000	74.70000000	104.80000000	134.40000000	99.20000000

#10
liczenie
obiektów (w)	udział punktów	pole obrazu(mm²)
	16	100.00	12288.0000
nr.	x(pix.):	y(pix.):	x(mm):	y(mm):	powierzchnia:(mm²)	długość:(mm)	szerokość:(mm)	kąt:(°)	obwód:(mm)	obwód C.:(mm)	średnica Fereta H(mm)	średnica Fereta V(mm)	średn. Martina:(mm)	średn. sitowa:(mm)	średnia jaskrawość	R	G	B	Y
1	824.00000000	542.50000000	82.40000000	54.20000000	0.34000000	0	0	0	2.82426406	2.82426406	1.20000000	0.30000000	0	0.65309666	158.90000000	116.70000000	171.70000000	203.60000000	158.90000000
2	646.50000000	571.50000000	64.70000000	57.20000000	0.64000000	0	0	0	4.27279217	4.27279217	1.60000000	0.50000000	0	0.89917023	158.80000000	117.20000000	171.50000000	203.10000000	158.80000000
3	641.00000000	266.50000000	64.10000000	26.70000000	0.22000000	0	0	0	1.76568542	1.76568542	0.50000000	0.50000000	0	0.52925674	172.00000000	136.20000000	185.30000000	197.60000000	172.00000000
4	1150.00000000	811.50000000	115.00000000	81.20000000	0.53000000	0	0	0	3.78994948	3.78994948	1.10000000	0.70000000	0	0.81758838	130.10000000	95.30000000	140.10000000	170.20000000	130.10000000
5	355.00000000	771.50000000	35.50000000	77.20000000	0.69000000	0	0	0	3.89705622	3.89705622	1.40000000	0.80000000	0	0.93730213	161.40000000	117.80000000	175.70000000	202.00000000	161.40000000
6	528.50000000	914.00000000	52.90000000	91.40000000	0.60000000	0	0	0	4.13137083	4.13137083	1.30000000	0.70000000	0	0.87403874	156.60000000	116.80000000	168.40000000	200.30000000	156.60000000
7	779.00000000	123.00000000	77.90000000	12.30000000	0.50000000	0	0	0	4.49705625	4.49705625	1.10000000	0.80000000	0	0.79788456	178.40000000	137.50000000	193.40000000	208.80000000	178.40000000
8	188.50000000	327.00000000	18.90000000	32.70000000	0.23000000	0	0	0	2.55563488	2.55563488	0.60000000	0.60000000	0	0.53523723	140.40000000	103.90000000	151.60000000	177.60000000	140.30000000
9	1095.50000000	911.00000000	109.60000000	91.10000000	0.66000000	0	0	0	4.53137083	4.53137083	1.80000000	0.50000000	0	0.91669957	121.90000000	87.60000000	131.20000000	163.90000000	121.90000000
10	276.00000000	326.00000000	27.60000000	32.60000000	0.54000000	0	0	0	3.27279217	3.27279217	1.10000000	0.70000000	0	0.82533821	167.00000000	123.90000000	182.10000000	203.20000000	167.10000000
11	641.00000000	726.50000000	64.10000000	72.70000000	1.06000000	0	0	0	5.88700571	5.88700571	2.20000000	0.70000000	0	1.15899427	148.70000000	109.40000000	160.50000000	190.50000000	148.70000000
12	1253.00000000	850.50000000	125.30000000	85.10000000	0.69000000	0	0	0	3.93137083	3.93137083	1.70000000	0.50000000	0	0.93730213	100.60000000	70.90000000	108.00000000	139.80000000	100.60000000
13	1177.00000000	781.50000000	117.70000000	78.20000000	0.68000000	0	0	0	6.22842708	6.22842708	1.80000000	0.70000000	0	0.93048530	165.20000000	123.20000000	178.70000000	206.30000000	165.20000000
14	974.00000000	433.00000000	97.40000000	43.30000000	0.64000000	0	0	0	4.35563488	4.35563488	1.70000000	0.70000000	0	0.89917023	161.00000000	117.70000000	175.10000000	202.90000000	161.10000000
15	744.50000000	481.50000000	74.50000000	48.20000000	1.42000000	0	0	0	8.07695520	8.07695520	1.70000000	1.40000000	0	1.34461896	146.20000000	107.80000000	157.50000000	188.70000000	146.20000000
16	304.00000000	333.50000000	30.40000000	33.40000000	0.93000000	0	0	0	5.67279218	5.67279218	1.70000000	0.70000000	0	1.08524033	197.20000000	156.30000000	212.70000000	225.00000000	197.20000000
